%OpenBCI Raw EEG Data
%Number of channels = 8
%Sample Rate = 250 Hz
%Board = OpenBCI_GUI$BoardCytonSerial
Sample Index, EXG Channel 0, EXG Channel 1, EXG Channel 2, EXG Channel 3, EXG Channel 4, EXG Channel 5, EXG Channel 6, EXG Channel 7, Accel Channel 0, Accel Channel 1, Accel Channel 2, Other, Other, Other, Other, Other, Other, Other, Analog Channel 0, Analog Channel 1, Analog Channel 2, Timestamp, Other, Timestamp (Formatted)
0.0, 0.0, 0.0, 0.0, 0.0, 0.0, 0.0, 0.0, 0.0, 0.0, 0.0, 0.0, 192.0, 0.0, 0.0, 0.0, 0.0, 0.0, 0.0, 0.0, 0.0, 0.0, 1.686120653073572E9, 0.0, 2023-06-07 08:50:53.073
1.0, 34352.12783242796, 24636.964456673202, -48.816209890390624, 750.0798404311944, 20033.622686102713, -644.93723451343, -5643.726067987212, -10709.391320871273, 0.008, -0.014, 0.97, 192.0, 0.0, 64.0, 255.0, 144.0, 30.0, 80.0, 0.0, 0.0, 0.0, 1.686120653090682E9, 0.0, 2023-06-07 08:50:53.090
2.0, 34373.585507105054, 24655.002314448633, -18.663706620181397, 720.1508546055383, 19963.43820851305, -696.4133019940022, -5760.938615910843, -10860.064430244498, 0.008, -0.014, 0.97, 192.0, 0.0, 0.0, 0.0, 0.0, 0.0, 0.0, 0.0, 0.0, 0.0, 1.686120653093685E9, 0.0, 2023-06-07 08:50:53.093
3.0, 34434.11403109003, 24709.205294752755, 43.76471564349123, 730.1867878659712, 19708.225990322353, -736.8029042247421, -5866.3717945065255, -11050.367182536982, 0.008, -0.014, 0.97, 192.0, 0.0, 0.0, 0.0, 0.0, 0.0, 0.0, 0.0, 0.0, 0.0, 1.686120653097693E9, 0.0, 2023-06-07 08:50:53.097
4.0, 34426.91676937542, 24702.142143504876, 33.70643063860305, 755.801887011753, 19619.087233434588, -719.8602819276192, -5825.2222329643055, -11027.166071792373, 0.008, -0.014, 0.97, 192.0, 0.0, 0.0, 0.0, 0.0, 0.0, 0.0, 0.0, 0.0, 0.0, 1.686120653102163E9, 0.0, 2023-06-07 08:50:53.102
5.0, 34359.32509414257, 24641.41245381981, -38.02031731847731, 767.3130354062362, 19835.899154651066, -662.9303887999522, -5686.708472574767, -10814.198650622207, 0.008, -0.014, 0.97, 192.0, 0.0, 0.0, 0.0, 0.0, 0.0, 0.0, 0.0, 0.0, 0.0, 1.686120653105725E9, 0.0, 2023-06-07 08:50:53.105
6.0, 34343.56711430158, 24629.342511813942, -53.42066924818388, 756.2265701564038, 20039.545898383367, -646.1665804584719, -5638.942794673776, -10712.07353020591, 0.008, -0.014, 0.97, 192.0, 0.0, 0.0, 0.0, 0.0, 0.0, 0.0, 0.0, 0.0, 0.0, 1.686120653108732E9, 0.0, 2023-06-07 08:50:53.108
7.0, 34375.351294917025, 24657.59511680545, -16.74145659702499, 736.4676280579124, 19972.580071995268, -686.2209065223822, -5740.062086589585, -10842.965345736187, 0.008, -0.014, 0.97, 192.0, 0.0, 0.0, 0.0, 0.0, 0.0, 0.0, 0.0, 0.0, 0.0, 1.686120653112692E9, 0.0, 2023-06-07 08:50:53.112
8.0, 34420.21124603882, 24696.598910879962, 29.52665442546063, 731.9525756779403, 19714.66329272548, -740.0886106596721, -5860.314471759138, -11041.225319054762, 0.006, -0.012, 0.974, 192.0, 0.0, 48.0, 255.0, 160.0, 30.0, 112.0, 0.0, 0.0, 0.0, 1.686120653118633E9, 0.0, 2023-06-07 08:50:53.118
9.0, 34443.56881899462, 24716.42490821182, 49.24089303504146, 748.4705148304123, 19608.73837575178, -727.0351918977728, -5829.804340577643, -11031.099978816508, 0.006, -0.012, 0.974, 192.0, 0.0, 0.0, 0.0, 0.0, 0.0, 0.0, 0.0, 0.0, 0.0, 1.686120653121681E9, 0.0, 2023-06-07 08:50:53.121
10.0, 34383.666143854396, 24664.83708200897, -15.400351929706567, 758.2829306462921, 19818.576552698203, -667.8924760690303, -5695.60446686798, -10821.530022803548, 0.006, -0.012, 0.974, 192.0, 0.0, 0.0, 0.0, 0.0, 0.0, 0.0, 0.0, 0.0, 0.0, 1.686120653125686E9, 0.0, 2023-06-07 08:50:53.125
11.0, 34340.99666368922, 24627.084985623955, -55.409974504706206, 735.4617995574235, 20020.412805129625, -656.001348018807, -5653.694946014279, -10728.8820420363, 0.006, -0.012, 0.974, 192.0, 0.0, 0.0, 0.0, 0.0, 0.0, 0.0, 0.0, 0.0, 0.0, 1.686120653129803E9, 0.0, 2023-06-07 08:50:53.129
12.0, 34380.246326952736, 24658.623297050395, -13.16517748417586, 719.4579505274237, 19953.13405431915, -701.5094997298122, -5756.065935619586, -10869.228645471174, 0.006, -0.012, 0.974, 192.0, 0.0, 0.0, 0.0, 0.0, 0.0, 0.0, 0.0, 0.0, 0.0, 1.686120653132803E9, 0.0, 2023-06-07 08:50:53.132
13.0, 34447.30156031866, 24719.665911157837, 57.86866639478998, 734.8806542015856, 19693.51854247076, -740.0886106596721, -5864.293082272182, -11057.117409362485, 0.006, -0.012, 0.974, 192.0, 0.0, 0.0, 0.0, 0.0, 0.0, 0.0, 0.0, 0.0, 0.0, 1.686120653136816E9, 0.0, 2023-06-07 08:50:53.136
14.0, 34450.54256326468, 24724.784460638104, 58.561570472904506, 749.0516601862503, 19598.434221557884, -717.4909970153567, -5825.736323086778, -11035.32445851856, 0.006, -0.012, 0.974, 192.0, 0.0, 0.0, 0.0, 0.0, 0.0, 0.0, 0.0, 0.0, 0.0, 1.686120653140827E9, 0.0, 2023-06-07 08:50:53.140
15.0, 34389.63405962397, 24671.02851522309, -6.973744270055803, 765.4578406164457, 19814.10620380714, -660.806973076698, -5698.17491748034, -10831.342438619427, 0.006, -0.012, 0.974, 192.0, 0.0, 0.0, 0.0, 0.0, 0.0, 0.0, 0.0, 0.0, 0.0, 1.686120653144831E9, 0.0, 2023-06-07 08:50:53.144
16.0, 34351.926666727864, 24634.19284036074, -47.1398290562426, 753.0973259326609, 20026.49247962147, -638.1199524545614, -5649.828094223511, -10730.536071125993, 0.006, -0.012, 0.974, 192.0, 0.0, 0.0, 0.0, 0.0, 0.0, 0.0, 0.0, 0.0, 0.0, 1.686120653149807E9, 0.0, 2023-06-07 08:50:53.149
17.0, 34383.35321943202, 24657.908041227824, -14.238061218030598, 733.964232678918, 19978.168008109096, -672.2063627489046, -5739.995031356219, -10853.537720863547, 0.006, -0.012, 0.974, 192.0, 0.0, 0.0, 0.0, 0.0, 0.0, 0.0, 0.0, 0.0, 0.0, 1.686120653153813E9, 0.0, 2023-06-07 08:50:53.153
18.0, 34442.65239747195, 24712.446297698774, 49.91144536870067, 745.900064218052, 19724.90039168601, -712.7747789352869, -5847.149294274962, -11043.974583622765, 0.006, -0.012, 0.972, 192.0, 0.0, 48.0, 255.0, 160.0, 30.0, 96.0, 0.0, 0.0, 0.0, 1.686120653157819E9, 0.0, 2023-06-07 08:50:53.157
19.0, 34450.38610105349, 24725.857344371958, 60.59557921833745, 764.3626051381357, 19617.299093878162, -692.1888222919491, -5810.984171746275, -11032.84341488402, 0.006, -0.012, 0.972, 192.0, 0.0, 0.0, 0.0, 0.0, 0.0, 0.0, 0.0, 0.0, 0.0, 1.686120653160839E9, 0.0, 2023-06-07 08:50:53.160
20.0, 34386.2142427223, 24666.44640760975, -11.667610605670287, 769.1011749626607, 19827.15962256904, -635.7059640533881, -5685.6355888409125, -10831.09656943042, 0.006, -0.012, 0.972, 192.0, 0.0, 0.0, 0.0, 0.0, 0.0, 0.0, 0.0, 0.0, 0.0, 1.686120653165104E9, 0.0, 2023-06-07 08:50:53.165
21.0, 34348.283332381645, 24628.604904246917, -50.44788723562804, 750.2586543868368, 20035.567287870323, -626.9664319713631, -5650.275129112617, -10735.676972350713, 0.006, -0.012, 0.972, 192.0, 0.0, 0.0, 0.0, 0.0, 0.0, 0.0, 0.0, 0.0, 0.0, 1.686120653168937E9, 0.0, 2023-06-07 08:50:53.168
22.0, 34373.250230938225, 24644.92167769929, -24.743381112024917, 734.2771571012923, 19982.14661862214, -661.9245602994633, -5742.99016511323, -10857.516331376593, 0.006, -0.012, 0.972, 192.0, 0.0, 0.0, 0.0, 0.0, 0.0, 0.0, 0.0, 0.0, 0.0, 1.686120653172941E9, 0.0, 2023-06-07 08:50:53.172
23.0, 34440.640740470975, 24707.41715519633, 47.363346500795664, 742.3237851052029, 19722.799327707213, -698.0673310836949, -5855.06181181214, -11044.7568946787, 0.006, -0.012, 0.972, 192.0, 0.0, 0.0, 0.0, 0.0, 0.0, 0.0, 0.0, 0.0, 0.0, 1.686120653176955E9, 0.0, 2023-06-07 08:50:53.176
24.0, 34466.68052276141, 24735.13331832091, 73.51488751350493, 760.3169393917251, 19593.762706966725, -682.2422960093375, -5832.128922000996, -11043.371086522471, 0.006, -0.012, 0.972, 192.0, 0.0, 0.0, 0.0, 0.0, 0.0, 0.0, 0.0, 0.0, 0.0, 1.686120653181938E9, 0.0, 2023-06-07 08:50:53.181
25.0, 34392.85271082553, 24670.089741955966, -6.057322747388214, 773.9291517650071, 19805.903113592045, -618.6739347784442, -5689.904772031877, -10827.14031066183, 0.006, -0.012, 0.972, 192.0, 0.0, 0.0, 0.0, 0.0, 0.0, 0.0, 0.0, 0.0, 0.0, 1.686120653184919E9, 0.0, 2023-06-07 08:50:53.184
26.0, 34346.94222771433, 24625.810936190002, -52.07956458086546, 762.9320934929959, 20023.653808075644, -601.7983677146874, -5637.534634773092, -10721.036579732488, 0.006, -0.012, 0.972, 192.0, 0.0, 0.0, 0.0, 0.0, 0.0, 0.0, 0.0, 0.0, 0.0, 1.686120653188974E9, 0.0, 2023-06-07 08:50:53.188
27.0, 34372.04323673764, 24645.614581777405, -24.408104945195312, 739.7086310039319, 19987.555740780324, -639.3045949106926, -5727.120426549963, -10839.344363134429, 0.006, -0.012, 0.972, 192.0, 0.0, 0.0, 0.0, 0.0, 0.0, 0.0, 0.0, 0.0, 0.0, 1.686120653192943E9, 0.0, 2023-06-07 08:50:53.192
28.0, 34422.75934490673, 24688.574634620505, 29.705468381103085, 734.8806542015856, 19733.282295856752, -685.7962233777313, -5852.647823410967, -11044.443970256325, 0.008, -0.018000000000000002, 0.968, 192.0, 0.0, 64.0, 255.0, 112.0, 30.0, 64.0, 0.0, 0.0, 0.0, 1.686120653196955E9, 0.0, 2023-06-07 08:50:53.196
29.0, 34436.77388868021, 24703.952634805755, 44.457619721605745, 750.6609857870324, 19617.25439038925, -678.1966302629269, -5835.615794136023, -11050.456589514803, 0.008, -0.018000000000000002, 0.968, 192.0, 0.0, 0.0, 0.0, 0.0, 0.0, 0.0, 0.0, 0.0, 0.0, 1.686120653201047E9, 0.0, 2023-06-07 08:50:53.201
30.0, 34383.532033387666, 24663.11599768591, -8.940697782122825, 768.2741604178144, 19800.315177478216, -627.2346529048268, -5710.401321697393, -10857.449276143227, 0.008, -0.018000000000000002, 0.968, 192.0, 0.0, 0.0, 0.0, 0.0, 0.0, 0.0, 0.0, 0.0, 0.0, 1.686120653205062E9, 0.0, 2023-06-07 08:50:53.205
31.0, 34337.7556607432, 24621.45234602122, -52.54895121442691, 756.6512533010547, 19998.552799052337, -611.3202108526482, -5658.321757116528, -10751.345545213884, 0.008, -0.018000000000000002, 0.968, 192.0, 0.0, 0.0, 0.0, 0.0, 0.0, 0.0, 0.0, 0.0, 0.0, 1.68612065321005E9, 0.0, 2023-06-07 08:50:53.210
32.0, 34356.329960385556, 24629.811898447504, -36.20982601759744, 745.1848083954822, 19972.758885950912, -645.2054554468937, -5740.084438334041, -10856.175226709274, 0.008, -0.018000000000000002, 0.968, 192.0, 0.0, 0.0, 0.0, 0.0, 0.0, 0.0, 0.0, 0.0, 0.0, 1.686120653213043E9, 0.0, 2023-06-07 08:50:53.213
33.0, 34413.863350613516, 24683.32197467351, 22.999945044510966, 753.9243404775073, 19769.38036315207, -668.8536010806085, -5830.944279544864, -11016.236068753728, 0.008, -0.018000000000000002, 0.968, 192.0, 0.0, 0.0, 0.0, 0.0, 0.0, 0.0, 0.0, 0.0, 0.0, 1.686120653217062E9, 0.0, 2023-06-07 08:50:53.217
34.0, 34425.50860947473, 24695.347213190464, 32.67825039365893, 765.77076503882, 19670.339783470605, -662.1480777440164, -5816.505052626736, -11020.594658922513, 0.008, -0.018000000000000002, 0.968, 192.0, 0.0, 0.0, 0.0, 0.0, 0.0, 0.0, 0.0, 0.0, 0.0, 1.686120653221094E9, 0.0, 2023-06-07 08:50:53.221
35.0, 34388.360010190016, 24661.55137557404, -5.275011691452467, 769.6376168295881, 19814.664997418524, -628.9780889723407, -5719.118502034963, -10861.941976778744, 0.008, -0.018000000000000002, 0.968, 192.0, 0.0, 0.0, 0.0, 0.0, 0.0, 0.0, 0.0, 0.0, 0.0, 1.686120653225055E9, 0.0, 2023-06-07 08:50:53.225
36.0, 34344.41648059088, 24621.429994276765, -48.749154657024704, 749.2528258863481, 19977.273938330884, -626.4970453378016, -5684.585056851513, -10773.22790303563, 0.008, -0.018000000000000002, 0.968, 192.0, 0.0, 0.0, 0.0, 0.0, 0.0, 0.0, 0.0, 0.0, 0.0, 1.686120653229081E9, 0.0, 2023-06-07 08:50:53.229
37.0, 34357.313437141594, 24631.10829962591, -35.91925333967845, 727.3481163201471, 19940.32650474626, -663.8468103226197, -5767.062993891596, -10873.095497261942, 0.008, -0.018000000000000002, 0.968, 192.0, 0.0, 0.0, 0.0, 0.0, 0.0, 0.0, 0.0, 0.0, 0.0, 1.686120653233103E9, 0.0, 2023-06-07 08:50:53.233
38.0, 34410.2200162673, 24679.097494971455, 16.89791880821214, 729.6950494879544, 19742.580621550158, -692.5017467143234, -5859.085125814096, -11026.763740392178, 0.008, -0.016, 0.974, 192.0, 0.0, 64.0, 255.0, 128.0, 30.0, 112.0, 0.0, 0.0, 0.0, 1.686120653238045E9, 0.0, 2023-06-07 08:50:53.238
39.0, 34426.29092053067, 24695.056640512543, 32.9241195826673, 756.0477562007613, 19660.102684510075, -674.3074267277035, -5830.787817333677, -11015.543164675613, 0.008, -0.016, 0.974, 192.0, 0.0, 0.0, 0.0, 0.0, 0.0, 0.0, 0.0, 0.0, 0.0, 1.686120653241176E9, 0.0, 2023-06-07 08:50:53.241
40.0, 34386.23659446676, 24663.65243955284, -4.492700635516719, 771.9845499973953, 19806.10427929214, -630.676821550944, -5719.051446801597, -10850.073200472976, 0.008, -0.016, 0.974, 192.0, 0.0, 0.0, 0.0, 0.0, 0.0, 0.0, 0.0, 0.0, 0.0, 1.686120653245227E9, 0.0, 2023-06-07 08:50:53.245
41.0, 34348.909181226394, 24626.794412946037, -43.76471564349123, 745.8553607291414, 19964.980478880465, -627.7934465162094, -5688.496612131192, -10769.048126822487, 0.008, -0.016, 0.974, 192.0, 0.0, 0.0, 0.0, 0.0, 0.0, 0.0, 0.0, 0.0, 0.0, 1.686120653249174E9, 0.0, 2023-06-07 08:50:53.249
42.0, 34396.0713620271, 24662.892480241357, -4.269183190963649, 733.6513082565438, 19932.861022098186, -659.8905515540304, -5768.918188681387, -10869.295700704539, 0.008, -0.016, 0.974, 192.0, 0.0, 0.0, 0.0, 0.0, 0.0, 0.0, 0.0, 0.0, 0.0, 1.686120653253203E9, 0.0, 2023-06-07 08:50:53.253
43.0, 34455.05761564465, 24717.22957101221, 55.879361138267654, 744.737773506376, 19733.37170283457, -688.0761013121726, -5863.466067727336, -11029.244784026718, 0.008, -0.016, 0.974, 192.0, 0.0, 0.0, 0.0, 0.0, 0.0, 0.0, 0.0, 0.0, 0.0, 1.68612065325719E9, 0.0, 2023-06-07 08:50:53.257
44.0, 34466.68052276141, 24736.764995666148, 75.6383032367591, 774.9126285210406, 19632.475928363318, -661.678691110455, -5829.402009177448, -11018.650057154902, 0.008, -0.016, 0.974, 192.0, 0.0, 0.0, 0.0, 0.0, 0.0, 0.0, 0.0, 0.0, 0.0, 1.686120653261201E9, 0.0, 2023-06-07 08:50:53.261
45.0, 34412.14226629046, 24689.26753869862, 18.239023475530562, 788.122509494127, 19784.8701220596, -618.7856935007208, -5713.374103709949, -10848.061543471998, 0.008, -0.016, 0.974, 192.0, 0.0, 0.0, 0.0, 0.0, 0.0, 0.0, 0.0, 0.0, 0.0, 1.68612065326518E9, 0.0, 2023-06-07 08:50:53.265
46.0, 34379.77694031918, 24653.840023736957, -20.00481128749982, 773.6162273426328, 19983.510075033915, -608.4368358179136, -5665.071983942031, -10740.214376475142, 0.008, -0.016, 0.974, 192.0, 0.0, 0.0, 0.0, 0.0, 0.0, 0.0, 0.0, 0.0, 0.0, 1.686120653269183E9, 0.0, 2023-06-07 08:50:53.269
47.0, 34419.6748041719, 24684.283099685086, 18.619003131270784, 760.2498841583591, 19964.46638875799, -640.869217022564, -5743.861883146988, -10834.739903776635, 0.008, -0.016, 0.974, 192.0, 0.0, 0.0, 0.0, 0.0, 0.0, 0.0, 0.0, 0.0, 0.0, 1.68612065327218E9, 0.0, 2023-06-07 08:50:53.272
48.0, 34469.385083840505, 24729.835954885002, 75.39243404775073, 757.2994538902586, 19741.597144794127, -677.9731128183738, -5854.257149011749, -11013.218583252261, 0.004, -0.012, 0.974, 192.0, 0.0, 32.0, 255.0, 160.0, 30.0, 112.0, 0.0, 0.0, 0.0, 1.686120653277211E9, 0.0, 2023-06-07 08:50:53.277
49.0, 34477.49876707778, 24742.174117824332, 87.28356209797408, 756.8077155122419, 19618.036701445188, -666.260798723793, -5841.002564549753, -11026.719036903267, 0.004, -0.012, 0.974, 192.0, 0.0, 0.0, 0.0, 0.0, 0.0, 0.0, 0.0, 0.0, 0.0, 1.686120653281453E9, 0.0, 2023-06-07 08:50:53.281
50.0, 34423.787525151674, 24696.1295242464, 27.55970091339361, 762.1274306926049, 19792.648529130045, -616.841091733109, -5712.301219976094, -10835.611621810393, 0.004, -0.012, 0.974, 192.0, 0.0, 0.0, 0.0, 0.0, 0.0, 0.0, 0.0, 0.0, 0.0, 1.686120653285311E9, 0.0, 2023-06-07 08:50:53.285
51.0, 34382.63796360946, 24655.20348014873, -19.02133453146631, 762.8203347707195, 20019.518735351412, -601.8654229480533, -5659.439344339293, -10714.778091285001, 0.004, -0.012, 0.974, 192.0, 0.0, 0.0, 0.0, 0.0, 0.0, 0.0, 0.0, 0.0, 0.0, 1.68612065328932E9, 0.0, 2023-06-07 08:50:53.289
52.0, 34409.14713253345, 24671.430846623283, 5.207956458086546, 759.9816632248954, 20003.090203176762, -633.6049000745893, -5747.751086682211, -10816.366769834372, 0.004, -0.012, 0.974, 192.0, 0.0, 0.0, 0.0, 0.0, 0.0, 0.0, 0.0, 0.0, 0.0, 1.686120653292322E9, 0.0, 2023-06-07 08:50:53.292
53.0, 34463.61833377103, 24722.102251303466, 65.28944555395194, 756.8971224900631, 19770.00621199682, -668.4289179359577, -5853.854817611554, -11000.679254612834, 0.004, -0.012, 0.974, 192.0, 0.0, 0.0, 0.0, 0.0, 0.0, 0.0, 0.0, 0.0, 0.0, 1.686120653296311E9, 0.0, 2023-06-07 08:50:53.296
54.0, 34486.55122358218, 24746.42094927084, 89.60814352132601, 772.185715697493, 19646.758693070256, -658.549446886712, -5835.101704013551, -11013.732673374734, 0.004, -0.012, 0.974, 192.0, 0.0, 0.0, 0.0, 0.0, 0.0, 0.0, 0.0, 0.0, 0.0, 1.686120653300332E9, 0.0, 2023-06-07 08:50:53.300
55.0, 34429.64368219896, 24694.944881790267, 26.55387241290479, 778.3547971671578, 19795.844828587156, -621.2220336463492, -5732.462493474781, -10852.129560962863, 0.004, -0.012, 0.974, 192.0, 0.0, 0.0, 0.0, 0.0, 0.0, 0.0, 0.0, 0.0, 0.0, 1.686120653304445E9, 0.0, 2023-06-07 08:50:53.304
56.0, 34389.70111485733, 24659.338552872963, -12.159348983687043, 764.4296603715015, 19984.09122038975, -609.8002922296873, -5686.708472574767, -10754.74301037109, 0.004, -0.012, 0.974, 192.0, 0.0, 0.0, 0.0, 0.0, 0.0, 0.0, 0.0, 0.0, 0.0, 1.686120653309447E9, 0.0, 2023-06-07 08:50:53.309
57.0, 34410.73410638978, 24676.012954236623, 11.064113505376996, 741.7426397493649, 19956.598574709722, -633.7166587968659, -5759.262235076694, -10848.218005683186, 0.004, -0.012, 0.974, 192.0, 0.0, 0.0, 0.0, 0.0, 0.0, 0.0, 0.0, 0.0, 0.0, 1.686120653313439E9, 0.0, 2023-06-07 08:50:53.313
58.0, 34449.11205161954, 24711.03813779809, 52.61600644779283, 740.4238868265018, 19762.026639226275, -668.7418423583321, -5856.4476199683695, -11008.927048316842, 0.004, -0.008, 0.976, 192.0, 0.0, 32.0, 255.0, 192.0, 30.0, 128.0, 0.0, 0.0, 0.0, 1.686120653317433E9, 0.0, 2023-06-07 08:50:53.317
59.0, 34451.03430164269, 24711.88750408739, 51.00668084701072, 768.2965121622697, 19686.477742967338, -661.7680980882762, -5836.3757534475035, -11008.234144238728, 0.004, -0.008, 0.976, 192.0, 0.0, 0.0, 0.0, 0.0, 0.0, 0.0, 0.0, 0.0, 0.0, 1.686120653320435E9, 0.0, 2023-06-07 08:50:53.320
60.0, 34416.38909773697, 24682.182035706286, 15.087427507332267, 790.7823670843086, 19822.15283181105, -625.7370860263212, -5733.513025464181, -10858.186883710252, 0.004, -0.008, 0.976, 192.0, 0.0, 0.0, 0.0, 0.0, 0.0, 0.0, 0.0, 0.0, 0.0, 1.686120653324442E9, 0.0, 2023-06-07 08:50:53.324
61.0, 34386.05778051112, 24653.035360936567, -11.757017583491516, 775.1808494545043, 19962.790007923842, -623.3007458806927, -5698.55489713608, -10782.772097918047, 0.004, -0.008, 0.976, 192.0, 0.0, 0.0, 0.0, 0.0, 0.0, 0.0, 0.0, 0.0, 0.0, 1.686120653328422E9, 0.0, 2023-06-07 08:50:53.328
62.0, 34394.03735328166, 24659.405608106328, 3.173947712653603, 758.349985879658, 19925.596705150212, -651.0169090052735, -5773.366185827993, -10878.39286069785, 0.004, -0.008, 0.976, 192.0, 0.0, 0.0, 0.0, 0.0, 0.0, 0.0, 0.0, 0.0, 0.0, 1.68612065333244E9, 0.0, 2023-06-07 08:50:53.332
63.0, 34423.586359451576, 24685.35598341894, 33.035878304943836, 752.382070110091, 19738.91493545949, -683.8292698656643, -5868.964596863341, -11032.642249183924, 0.004, -0.008, 0.976, 192.0, 0.0, 0.0, 0.0, 0.0, 0.0, 0.0, 0.0, 0.0, 0.0, 1.686120653337462E9, 0.0, 2023-06-07 08:50:53.337
64.0, 34445.93810390688, 24708.713556374736, 52.81717214789059, 772.7445093088758, 19661.66730662195, -666.6631301239885, -5840.667288382922, -11024.282696757638, 0.004, -0.008, 0.976, 192.0, 0.0, 0.0, 0.0, 0.0, 0.0, 0.0, 0.0, 0.0, 0.0, 1.686120653341435E9, 0.0, 2023-06-07 08:50:53.341
65.0, 34414.220978524805, 24682.31614617302, 20.407142687695348, 781.7299105799092, 19790.9721482959, -635.8177227756647, -5742.6325372019455, -10875.0177472851, 0.004, -0.008, 0.976, 192.0, 0.0, 0.0, 0.0, 0.0, 0.0, 0.0, 0.0, 0.0, 0.0, 1.686120653350325E9, 0.0, 2023-06-07 08:50:53.350
66.0, 34386.66127761141, 24652.54362255855, -10.88529954973454, 766.0836894611942, 19936.794929122323, -642.8138187901758, -5713.195289754306, -10796.361958546873, 0.004, -0.008, 0.976, 192.0, 0.0, 0.0, 0.0, 0.0, 0.0, 0.0, 0.0, 0.0, 0.0, 1.686120653350371E9, 0.0, 2023-06-07 08:50:53.350
67.0, 34404.76619062021, 24667.94397448826, 9.499491393505501, 760.5851603251888, 19909.346986931203, -669.5912086476337, -5777.411851574404, -10877.118811263897, 0.004, -0.008, 0.976, 192.0, 0.0, 0.0, 0.0, 0.0, 0.0, 0.0, 0.0, 0.0, 0.0, 1.686120653352455E9, 0.0, 2023-06-07 08:50:53.352
68.0, 34451.03430164269, 24711.418117453828, 58.47216349508328, 768.4082708845463, 19740.300743615717, -682.711682642899, -5852.111381544039, -11010.603429150991, 0.004, -0.008, 0.976, 192.0, 0.0, 0.0, 255.0, 160.0, 30.0, 128.0, 0.0, 0.0, 0.0, 1.686120653356564E9, 0.0, 2023-06-07 08:50:53.356
69.0, 34458.186859868394, 24720.202353024764, 69.89390491174518, 777.9077622780517, 19662.583728144615, -668.6971388694213, -5833.402971434948, -11013.531507674636, 0.004, -0.008, 0.976, 192.0, 0.0, 0.0, 0.0, 0.0, 0.0, 0.0, 0.0, 0.0, 0.0, 1.686120653360585E9, 0.0, 2023-06-07 08:50:53.360
70.0, 34409.01302206672, 24674.06835246901, 19.311907209385303, 771.2469424303702, 19789.228712228385, -638.678746065944, -5744.2195110582725, -10877.185866497262, 0.004, -0.008, 0.976, 192.0, 0.0, 0.0, 0.0, 0.0, 0.0, 0.0, 0.0, 0.0, 0.0, 1.686120653364585E9, 0.0, 2023-06-07 08:50:53.364
71.0, 34380.80512056412, 24646.68746551126, -9.030104759944054, 743.5531310502447, 19931.56462091978, -640.2433681778155, -5713.932897321331, -10802.66515048327, 0.004, -0.008, 0.976, 192.0, 0.0, 0.0, 0.0, 0.0, 0.0, 0.0, 0.0, 0.0, 0.0, 1.686120653371068E9, 0.0, 2023-06-07 08:50:53.371
72.0, 34391.10927475802, 24655.78462550457, 3.442168646117288, 740.9156252045185, 19907.625902608146, -668.5630284026895, -5781.52457255418, -10883.846686344945, 0.004, -0.008, 0.976, 192.0, 0.0, 0.0, 0.0, 0.0, 0.0, 0.0, 0.0, 0.0, 0.0, 1.686120653373736E9, 0.0, 2023-06-07 08:50:53.373
73.0, 34439.187877081386, 24696.375393435406, 47.76567790099119, 761.1216021921161, 19739.116101159587, -691.2053455359156, -5865.678890428411, -11020.41584496687, 0.004, -0.008, 0.976, 192.0, 0.0, 0.0, 0.0, 0.0, 0.0, 0.0, 0.0, 0.0, 0.0, 1.686120653376585E9, 0.0, 2023-06-07 08:50:53.376
74.0, 34451.70485397636, 24707.59596915197, 57.80161116142406, 780.6570268460545, 19661.801417088678, -676.0061593063068, -5843.573015162113, -11022.740426390223, 0.004, -0.008, 0.976, 192.0, 0.0, 0.0, 0.0, 0.0, 0.0, 0.0, 0.0, 0.0, 0.0, 1.686120653380577E9, 0.0, 2023-06-07 08:50:53.380
75.0, 34410.68940290087, 24673.151930946344, 15.154482740698189, 786.2896664487919, 19794.05668903073, -638.164655943472, -5742.654888946401, -10880.650386887835, 0.004, -0.008, 0.976, 192.0, 0.0, 0.0, 0.0, 0.0, 0.0, 0.0, 0.0, 0.0, 0.0, 1.686120653384841E9, 0.0, 2023-06-07 08:50:53.384
76.0, 34378.927574029876, 24641.54656428654, -18.306078708896486, 755.0195759558172, 19937.107853544698, -627.8157982606648, -5701.41592042636, -10800.407624293282, 0.004, -0.008, 0.976, 192.0, 0.0, 0.0, 0.0, 0.0, 0.0, 0.0, 0.0, 0.0, 0.0, 1.686120653388622E9, 0.0, 2023-06-07 08:50:53.388
77.0, 34395.80314109363, 24654.085892925967, 1.072883733854739, 738.255767614337, 19909.011710764375, -654.4143741624802, -5768.940540425842, -10884.025500300588, 0.004, -0.008, 0.976, 192.0, 0.0, 0.0, 0.0, 0.0, 0.0, 0.0, 0.0, 0.0, 0.0, 1.686120653392685E9, 0.0, 2023-06-07 08:50:53.392
78.0, 34437.33268229159, 24692.35207943345, 40.031974319454946, 766.4860208613898, 19748.39207510854, -674.0615575386951, -5848.088067542085, -11014.514984430669, 0.002, -0.016, 0.976, 192.0, 0.0, 16.0, 255.0, 128.0, 30.0, 128.0, 0.0, 0.0, 0.0, 1.686120653398378E9, 0.0, 2023-06-07 08:50:53.398
79.0, 34441.691272460375, 24701.65040512686, 46.625738933770535, 789.5977246281773, 19677.872321352046, -662.5280573997567, -5830.832520822588, -11011.922182073855, 0.002, -0.016, 0.976, 192.0, 0.0, 0.0, 0.0, 0.0, 0.0, 0.0, 0.0, 0.0, 0.0, 1.686120653400672E9, 0.0, 2023-06-07 08:50:53.400
80.0, 34400.98874580726, 24666.558166332026, 6.2137849585753635, 792.6152101296437, 19803.28795949077, -625.938251726419, -5734.049467331108, -10865.942939036244, 0.002, -0.016, 0.976, 192.0, 0.0, 0.0, 0.0, 0.0, 0.0, 0.0, 0.0, 0.0, 0.0, 1.686120653403712E9, 0.0, 2023-06-07 08:50:53.403
81.0, 34371.0597599816, 24637.25502935112, -23.178759000153423, 771.3587011526467, 19953.156406063605, -629.4474756059022, -5701.237106470717, -10783.867333396356, 0.002, -0.016, 0.976, 192.0, 0.0, 0.0, 0.0, 0.0, 0.0, 0.0, 0.0, 0.0, 0.0, 1.686120653408713E9, 0.0, 2023-06-07 08:50:53.408
82.0, 34385.65544911092, 24648.20738413422, -7.30902043688541, 758.5064480908452, 19928.569487162767, -654.3473189291143, -5769.499334037225, -10867.57461638148, 0.002, -0.016, 0.976, 192.0, 0.0, 0.0, 0.0, 0.0, 0.0, 0.0, 0.0, 0.0, 0.0, 1.686120653412698E9, 0.0, 2023-06-07 08:50:53.412
83.0, 34415.830304125586, 24677.018782737112, 26.129189268253956, 762.9991487263619, 19758.539767091246, -675.6708831394772, -5855.151218789962, -11017.04073155412, 0.002, -0.016, 0.976, 192.0, 0.0, 0.0, 0.0, 0.0, 0.0, 0.0, 0.0, 0.0, 0.0, 1.686120653416692E9, 0.0, 2023-06-07 08:50:53.416
84.0, 34430.47069674381, 24692.486189900184, 42.4236109761728, 784.6803408480098, 19679.459295208373, -662.3492434441142, -5837.1357127589845, -11025.176766535851, 0.002, -0.016, 0.976, 192.0, 0.0, 0.0, 0.0, 0.0, 0.0, 0.0, 0.0, 0.0, 0.0, 1.686120653420702E9, 0.0, 2023-06-07 08:50:53.420
85.0, 34384.53786188816, 24645.860450966415, -8.918346037667519, 783.2721809473254, 19797.76707861031, -645.6524903359998, -5758.56933099858, -10899.984645841676, 0.002, -0.016, 0.976, 192.0, 0.0, 0.0, 0.0, 0.0, 0.0, 0.0, 0.0, 0.0, 0.0, 1.686120653424692E9, 0.0, 2023-06-07 08:50:53.424
86.0, 34354.4077103624, 24615.842058162936, -38.69086965213653, 761.7921545257753, 19940.95235359101, -649.742859571321, -5721.51013869168, -10823.072293170964, 0.002, -0.016, 0.976, 192.0, 0.0, 0.0, 0.0, 0.0, 0.0, 0.0, 0.0, 0.0, 0.0, 1.68612065342868E9, 0.0, 2023-06-07 08:50:53.428
87.0, 34385.700152599835, 24644.16171838781, -5.945564025111679, 758.5287998353004, 19925.104966772196, -659.9576067873963, -5769.186409614851, -10891.803907371033, 0.002, -0.016, 0.976, 192.0, 0.0, 0.0, 0.0, 0.0, 0.0, 0.0, 0.0, 0.0, 0.0, 1.686120653431828E9, 0.0, 2023-06-07 08:50:53.431
88.0, 34439.657263714944, 24692.240320711175, 44.88230286625658, 767.156573195049, 19760.082037458666, -669.9488365589186, -5841.650765138957, -11026.89785085891, 0.002, -0.018000000000000002, 0.978, 192.0, 0.0, 16.0, 255.0, 112.0, 30.0, 144.0, 0.0, 0.0, 0.0, 1.686120653435824E9, 0.0, 2023-06-07 08:50:53.435
89.0, 34462.813670970645, 24713.586236665993, 62.204904819119555, 789.2624484613477, 19682.61089117657, -657.5659701306785, -5823.612907363523, -11030.496481716214, 0.002, -0.018000000000000002, 0.978, 192.0, 0.0, 0.0, 0.0, 0.0, 0.0, 0.0, 0.0, 0.0, 0.0, 1.686120653440822E9, 0.0, 2023-06-07 08:50:53.440
90.0, 34405.682612142875, 24667.49693959915, 12.382866428240114, 804.0593032907609, 19813.34624449566, -623.4125046029693, -5728.640345172924, -10892.429756215783, 0.002, -0.018000000000000002, 0.978, 192.0, 0.0, 0.0, 0.0, 0.0, 0.0, 0.0, 0.0, 0.0, 0.0, 1.686120653444855E9, 0.0, 2023-06-07 08:50:53.444
91.0, 34360.46503310979, 24629.45427053622, -23.692849122625486, 801.7123701229538, 19977.475104030982, -610.0238096742404, -5680.9417225052985, -10802.285170827528, 0.002, -0.018000000000000002, 0.978, 192.0, 0.0, 0.0, 0.0, 0.0, 0.0, 0.0, 0.0, 0.0, 0.0, 1.686120653448829E9, 0.0, 2023-06-07 08:50:53.448
92.0, 34383.48732989876, 24643.893497454348, -3.263354690474831, 794.6268671306213, 19962.85706315721, -638.0528972211954, -5754.478961763259, -10884.450183445239, 0.002, -0.018000000000000002, 0.978, 192.0, 0.0, 0.0, 0.0, 0.0, 0.0, 0.0, 0.0, 0.0, 0.0, 1.686120653453119E9, 0.0, 2023-06-07 08:50:53.453
93.0, 34424.145153062964, 24679.544529860563, 37.41682021818402, 799.544250910789, 19790.368651195604, -679.6941971414325, -5862.214370037838, -11038.453702742303, 0.002, -0.018000000000000002, 0.978, 192.0, 0.0, 0.0, 0.0, 0.0, 0.0, 0.0, 0.0, 0.0, 0.0, 1.686120653456832E9, 0.0, 2023-06-07 08:50:53.456
94.0, 34446.631007985, 24703.572655150016, 61.154372829720124, 826.7239721684423, 19706.1025745991, -674.3521302166141, -5848.311584986638, -11042.477016744258, 0.002, -0.018000000000000002, 0.978, 192.0, 0.0, 0.0, 0.0, 0.0, 0.0, 0.0, 0.0, 0.0, 0.0, 1.686120653459798E9, 0.0, 2023-06-07 08:50:53.459
95.0, 34409.594167422554, 24673.397800135353, 28.20790150259751, 851.2438358359142, 19844.862204177643, -631.7497052847988, -5732.104865563496, -10883.8690380894, 0.002, -0.018000000000000002, 0.978, 192.0, 0.0, 0.0, 0.0, 0.0, 0.0, 0.0, 0.0, 0.0, 0.0, 1.686120653464824E9, 0.0, 2023-06-07 08:50:53.464
96.0, 34375.88773678395, 24641.680674753272, -6.191433214120057, 843.8230566767522, 20018.512906850923, -614.0471236761956, -5668.871780499432, -10784.314368285462, 0.002, -0.018000000000000002, 0.978, 192.0, 0.0, 0.0, 0.0, 0.0, 0.0, 0.0, 0.0, 0.0, 0.0, 1.686120653469139E9, 0.0, 2023-06-07 08:50:53.469
97.0, 34387.13066424497, 24649.548488801538, 5.9902675140222925, 837.9892513739171, 20013.751985281942, -643.3949641460138, -5741.291432534627, -10867.596968125936, 0.002, -0.018000000000000002, 0.978, 192.0, 0.0, 0.0, 0.0, 0.0, 0.0, 0.0, 0.0, 0.0, 0.0, 1.686120653472957E9, 0.0, 2023-06-07 08:50:53.472
98.0, 34423.4746007293, 24681.757352561635, 42.267148764985656, 849.5451032573109, 19854.40639906006, -677.5260779292677, -5839.43794243788, -11012.816251852066, 0.002, -0.018000000000000002, 0.978, 192.0, 0.0, 0.0, 0.0, 0.0, 0.0, 0.0, 0.0, 0.0, 0.0, 1.686120653476962E9, 0.0, 2023-06-07 08:50:53.476
99.0, 34434.65047295696, 24693.290852700575, 51.900750625223, 863.8055162197968, 19781.830284813677, -677.3025604847146, -5832.374791190004, -11026.495519458715, 0.004, -0.012, 0.972, 192.0, 0.0, 32.0, 255.0, 160.0, 30.0, 96.0, 0.0, 0.0, 0.0, 1.68612065348094E9, 0.0, 2023-06-07 08:50:53.480
100.0, 34394.55144340413, 24657.371599360897, 12.85225306180156, 874.2661326248805, 19922.445109182016, -654.4590776513908, -5740.196197056317, -10889.904009092334, 0.004, -0.012, 0.972, 192.0, 0.0, 0.0, 0.0, 0.0, 0.0, 0.0, 0.0, 0.0, 0.0, 1.686120653484928E9, 0.0, 2023-06-07 08:50:53.484
101.0, 34358.72159704228, 24623.061671622, -23.804607844902023, 870.9804261899503, 20103.248370080993, -652.1344962280389, -5691.245876699195, -10796.026682380043, 0.004, -0.012, 0.972, 192.0, 0.0, 0.0, 0.0, 0.0, 0.0, 0.0, 0.0, 0.0, 0.0, 1.686120653491691E9, 0.0, 2023-06-07 08:50:53.491
102.0, 34373.585507105054, 24634.505764783116, -10.371209427262476, 877.7306530154531, 20110.512687028968, -671.1558307595052, -5745.493560492225, -10859.080953488465, 0.004, -0.012, 0.972, 192.0, 0.0, 0.0, 0.0, 0.0, 0.0, 0.0, 0.0, 0.0, 0.0, 1.686120653491957E9, 0.0, 2023-06-07 08:50:53.491
103.0, 34409.460056955824, 24664.725323286693, 23.782256100446716, 879.6529030386095, 19944.7074466595, -697.8438136391418, -5838.521520915213, -10999.874591812444, 0.004, -0.012, 0.972, 192.0, 0.0, 0.0, 0.0, 0.0, 0.0, 0.0, 0.0, 0.0, 0.0, 1.686120653496959E9, 0.0, 2023-06-07 08:50:53.496
104.0, 34416.05382157014, 24672.771951290604, 31.29244223742989, 877.7083012709977, 19852.238279847894, -692.7029124144212, -5838.499169170758, -11017.979504821242, 0.004, -0.012, 0.972, 192.0, 0.0, 0.0, 0.0, 0.0, 0.0, 0.0, 0.0, 0.0, 0.0, 1.686120653500957E9, 0.0, 2023-06-07 08:50:53.500
105.0, 34381.94505953134, 24641.63597126436, -8.091331492821157, 860.6092167626879, 19967.550929492823, -653.9002840400082, -5750.23213031675, -10888.004110813632, 0.004, -0.012, 0.972, 192.0, 0.0, 0.0, 0.0, 0.0, 0.0, 0.0, 0.0, 0.0, 0.0, 1.686120653504965E9, 0.0, 2023-06-07 08:50:53.504
106.0, 34350.18323066035, 24612.131668583355, -37.10389579580973, 836.0446496063054, 20124.750748247, -647.9994235038071, -5703.919315805354, -10799.401795792795, 0.004, -0.012, 0.972, 192.0, 0.0, 0.0, 0.0, 0.0, 0.0, 0.0, 0.0, 0.0, 0.0, 1.686120653508711E9, 0.0, 2023-06-07 08:50:53.508
107.0, 34350.13852717144, 24609.40475575981, -34.84636960582371, 856.4294405495455, 20140.687542043634, -678.643665152033, -5759.373993798971, -10869.67568036028, 0.004, -0.012, 0.972, 192.0, 0.0, 0.0, 0.0, 0.0, 0.0, 0.0, 0.0, 0.0, 0.0, 1.686120653513274E9, 0.0, 2023-06-07 08:50:53.513
108.0, 34379.15109147443, 24634.81868920549, -6.347895425307206, 892.5945630782322, 20000.095069419753, -711.1431015900495, -5838.879148826498, -11013.732673374734, 0.004, -0.012, 0.972, 192.0, 0.0, 0.0, 0.0, 0.0, 0.0, 0.0, 0.0, 0.0, 0.0, 1.686120653516064E9, 0.0, 2023-06-07 08:50:53.516
109.0, 34382.548556631635, 24639.40079681883, -4.068017490865885, 916.0638947563046, 19914.912571300578, -719.1003226161388, -5838.521520915213, -11039.414827753882, 0.006, -0.014, 0.976, 192.0, 0.0, 48.0, 255.0, 144.0, 30.0, 128.0, 0.0, 0.0, 0.0, 1.686120653520057E9, 0.0, 2023-06-07 08:50:53.520
110.0, 34350.71967252727, 24613.517476739584, -34.86872135027902, 945.0541073148379, 20036.796633815364, -695.89921187153, -5753.3166710515825, -10912.769843670112, 0.006, -0.014, 0.976, 192.0, 0.0, 0.0, 0.0, 0.0, 0.0, 0.0, 0.0, 0.0, 0.0, 1.686120653524054E9, 0.0, 2023-06-07 08:50:53.524
111.0, 34318.510808767176, 24579.498121678607, -69.06689036689882, 945.8364183707737, 20199.405574727723, -685.9079821000079, -5699.158394236373, -10812.85754595489, 0.006, -0.014, 0.976, 192.0, 0.0, 0.0, 0.0, 0.0, 0.0, 0.0, 0.0, 0.0, 0.0, 1.68612065352906E9, 0.0, 2023-06-07 08:50:53.529
112.0, 34326.199808859805, 24582.470903691163, -59.634454206759244, 929.9666798075057, 20185.771010609988, -714.4958632583456, -5763.464363034292, -10883.8690380894, 0.006, -0.014, 0.976, 192.0, 0.0, 0.0, 0.0, 0.0, 0.0, 0.0, 0.0, 0.0, 0.0, 1.686120653533064E9, 0.0, 2023-06-07 08:50:53.533
113.0, 34374.926611772375, 24626.146212356834, -13.746322840013844, 939.7120403900195, 20018.468203362012, -728.868034943108, -5844.891768084975, -11024.685028157834, 0.006, -0.014, 0.976, 192.0, 0.0, 0.0, 0.0, 0.0, 0.0, 0.0, 0.0, 0.0, 0.0, 1.686120653536176E9, 0.0, 2023-06-07 08:50:53.536
114.0, 34375.10542572802, 24627.174392601777, -11.667610605670287, 953.9277498635948, 19929.91059183009, -717.289831315259, -5830.877224311498, -11045.248633056717, 0.006, -0.014, 0.976, 192.0, 0.0, 0.0, 0.0, 0.0, 0.0, 0.0, 0.0, 0.0, 0.0, 1.68612065354005E9, 0.0, 2023-06-07 08:50:53.540
115.0, 34334.82758221955, 24590.87515960636, -52.14661981423138, 963.6507587016534, 20044.262116463437, -697.2850200277592, -5746.074705848063, -10930.87475667891, 0.006, -0.014, 0.976, 192.0, 0.0, 0.0, 0.0, 0.0, 0.0, 0.0, 0.0, 0.0, 0.0, 1.686120653544049E9, 0.0, 2023-06-07 08:50:53.544
116.0, 34300.4953027362, 24559.515662135564, -84.64605625224785, 955.827648142296, 20195.337557236857, -700.3248572736809, -5702.153527993385, -10852.9118720188, 0.006, -0.014, 0.976, 192.0, 0.0, 0.0, 0.0, 0.0, 0.0, 0.0, 0.0, 0.0, 0.0, 1.686120653548198E9, 0.0, 2023-06-07 08:50:53.548
117.0, 34296.203767800784, 24551.357275409377, -89.96577143261092, 934.8840635876732, 20175.533911649458, -730.2985465882476, -5766.392441557938, -10934.40633230285, 0.006, -0.014, 0.976, 192.0, 0.0, 0.0, 0.0, 0.0, 0.0, 0.0, 0.0, 0.0, 0.0, 1.686120653552292E9, 0.0, 2023-06-07 08:50:53.552
118.0, 34325.48455303723, 24578.849921089404, -60.93085538516705, 940.2931857458575, 20001.503229320435, -763.6920528044764, -5861.856742126553, -11081.123182907484, 0.006, -0.014, 0.976, 192.0, 0.0, 0.0, 0.0, 0.0, 0.0, 0.0, 0.0, 0.0, 0.0, 1.686120653559284E9, 0.0, 2023-06-07 08:50:53.559
119.0, 34331.94420718482, 24589.53405493904, -49.82203839087944, 958.1075260767373, 19895.17598094654, -758.9087794910407, -5856.179399034906, -11097.082328448574, 0.008, -0.012, 0.98, 192.0, 0.0, 64.0, 255.0, 160.0, 30.0, 160.0, 0.0, 0.0, 0.0, 1.686120653561373E9, 0.0, 2023-06-07 08:50:53.561
120.0, 34296.22611954524, 24559.917993535757, -83.46141379611657, 954.888874875173, 19975.217577840995, -731.8631687001191, -5764.827819446065, -10968.470390852737, 0.008, -0.012, 0.98, 192.0, 0.0, 0.0, 0.0, 0.0, 0.0, 0.0, 0.0, 0.0, 0.0, 1.686120653564188E9, 0.0, 2023-06-07 08:50:53.564
121.0, 34262.586744140004, 24524.445775085187, -118.73246654659111, 935.3534502212347, 20103.18131484763, -726.1858256084712, -5715.542222922114, -10871.8661513169, 0.008, -0.012, 0.98, 192.0, 0.0, 0.0, 0.0, 0.0, 0.0, 0.0, 0.0, 0.0, 0.0, 1.686120653568222E9, 0.0, 2023-06-07 08:50:53.568
122.0, 34270.43220644382, 24524.266961129542, -115.60322232284813, 925.8763105721845, 20079.756686658464, -739.4180583260129, -5766.548903769124, -10943.21291961824, 0.008, -0.012, 0.98, 192.0, 0.0, 0.0, 0.0, 0.0, 0.0, 0.0, 0.0, 0.0, 0.0, 1.686120653572278E9, 0.0, 2023-06-07 08:50:53.572
123.0, 34304.47391324925, 24556.319362678452, -79.39339630525069, 927.4856361729666, 19892.98550998992, -759.0428899577726, -5856.268806012727, -11102.089119206563, 0.008, -0.012, 0.98, 192.0, 0.0, 0.0, 0.0, 0.0, 0.0, 0.0, 0.0, 0.0, 0.0, 1.686120653576216E9, 0.0, 2023-06-07 08:50:53.576
124.0, 34311.78293368613, 24565.505929649586, -70.98914039005523, 941.7684008799077, 19782.67965110298, -755.9136457340295, -5857.319338002127, -11135.527328911701, 0.008, -0.012, 0.98, 192.0, 0.0, 0.0, 0.0, 0.0, 0.0, 0.0, 0.0, 0.0, 0.0, 1.68612065358021E9, 0.0, 2023-06-07 08:50:53.580
125.0, 34283.86560486145, 24542.416577627253, -101.99100994956612, 956.1182208202149, 19884.290681396804, -714.3394010471584, -5760.2457118327275, -11015.744330375712, 0.008, -0.012, 0.98, 192.0, 0.0, 0.0, 0.0, 0.0, 0.0, 0.0, 0.0, 0.0, 0.0, 1.686120653584226E9, 0.0, 2023-06-07 08:50:53.584
126.0, 34261.40210168387, 24518.366100593343, -128.36606840682845, 955.1347440641814, 20040.752892583954, -689.5066129573123, -5699.560725636569, -10910.199393057752, 0.008, -0.012, 0.98, 192.0, 0.0, 0.0, 0.0, 0.0, 0.0, 0.0, 0.0, 0.0, 0.0, 1.686120653589337E9, 0.0, 2023-06-07 08:50:53.589
127.0, 34266.65476163087, 24517.159106392755, -125.86267302783406, 943.0871538027709, 20036.930744282097, -709.1761480779825, -5762.1232583669735, -10958.88149248141, 0.008, -0.012, 0.98, 192.0, 0.0, 0.0, 0.0, 0.0, 0.0, 0.0, 0.0, 0.0, 0.0, 1.686120653592305E9, 0.0, 2023-06-07 08:50:53.592
128.0, 34307.87137840645, 24552.25134518759, -84.91427718571153, 939.2873572453686, 19872.712477768957, -725.8952529305521, -5855.665308912434, -11080.542037551646, 0.008, -0.012, 0.98, 192.0, 0.0, 0.0, 0.0, 0.0, 0.0, 0.0, 0.0, 0.0, 0.0, 1.686120653596326E9, 0.0, 2023-06-07 08:50:53.596
129.0, 34307.71491619527, 24555.447644644697, -80.60039050583727, 932.0677437863045, 19774.633023099068, -712.5065580018232, -5863.466067727336, -11073.031851414664, 0.004, -0.006, 0.98, 192.0, 0.0, 32.0, 255.0, 208.0, 30.0, 160.0, 0.0, 0.0, 0.0, 1.686120653600322E9, 0.0, 2023-06-07 08:50:53.600
130.0, 34265.313656963546, 24514.56630403594, -129.4389521406832, 910.0736272422823, 19870.7902277458, -685.0586158107062, -5801.484680352769, -10931.455902034748, 0.004, -0.006, 0.98, 192.0, 0.0, 0.0, 0.0, 0.0, 0.0, 0.0, 0.0, 0.0, 0.0, 1.686120653604323E9, 0.0, 2023-06-07 08:50:53.604
131.0, 34230.981377480195, 24479.563472218928, -167.056938058965, 893.3545223897127, 20023.05031097535, -663.5562376447008, -5754.836589674544, -10835.835139254945, 0.004, -0.006, 0.98, 192.0, 0.0, 0.0, 0.0, 0.0, 0.0, 0.0, 0.0, 0.0, 0.0, 1.686120653608294E9, 0.0, 2023-06-07 08:50:53.608
132.0, 34238.93859850628, 24486.134885088788, -156.14928676477513, 905.7150370734975, 20033.175651213605, -648.3346996706366, -5795.114433183006, -10897.39184348486, 0.004, -0.006, 0.98, 192.0, 0.0, 0.0, 0.0, 0.0, 0.0, 0.0, 0.0, 0.0, 0.0, 1.686120653612314E9, 0.0, 2023-06-07 08:50:53.612
133.0, 34283.50797695017, 24527.016225697545, -106.10373092934263, 947.2222265270027, 19873.070105680243, -632.5543680851898, -5857.185227535395, -11036.084417830041, 0.004, -0.006, 0.98, 192.0, 0.0, 0.0, 0.0, 0.0, 0.0, 0.0, 0.0, 0.0, 0.0, 1.686120653617439E9, 0.0, 2023-06-07 08:50:53.617
134.0, 34303.468084748754, 24541.52250784904, -91.26217261101874, 979.0287588869046, 19763.099522960132, -600.8148909586538, -5841.5390064166795, -11070.841380458043, 0.004, -0.006, 0.98, 192.0, 0.0, 0.0, 0.0, 0.0, 0.0, 0.0, 0.0, 0.0, 0.0, 1.686120653620485E9, 0.0, 2023-06-07 08:50:53.620
135.0, 34263.97255229623, 24507.972539421626, -130.91416727473347, 1003.1239394097257, 19854.674619993522, -551.2610735012381, -5751.4391245173365, -10952.444190078282, 0.004, -0.006, 0.98, 192.0, 0.0, 0.0, 0.0, 0.0, 0.0, 0.0, 0.0, 0.0, 0.0, 1.68612065362442E9, 0.0, 2023-06-07 08:50:53.624
136.0, 34222.84534249846, 24471.98623084858, -169.47092646013814, 1003.7944917433849, 19988.025127413886, -526.0036022667412, -5712.524737420647, -10858.186883710252, 0.004, -0.006, 0.98, 192.0, 0.0, 0.0, 0.0, 0.0, 0.0, 0.0, 0.0, 0.0, 0.0, 1.68612065362844E9, 0.0, 2023-06-07 08:50:53.628
137.0, 34236.45755487175, 24477.9764983626, -158.58562691040362, 1006.9460877115831, 19963.43820851305, -525.5342156331797, -5781.748089998733, -10926.06913162102, 0.004, -0.006, 0.98, 192.0, 0.0, 0.0, 0.0, 0.0, 0.0, 0.0, 0.0, 0.0, 0.0, 1.686120653632444E9, 0.0, 2023-06-07 08:50:53.632
138.0, 34282.16687228285, 24519.37192909383, -110.7975972649571, 1026.593271087798, 19779.505703390325, -522.2708609427049, -5872.250303298271, -11070.349642080027, 0.004, -0.006, 0.98, 192.0, 0.0, 0.0, 0.0, 0.0, 0.0, 0.0, 0.0, 0.0, 0.0, 1.686120653636424E9, 0.0, 2023-06-07 08:50:53.636
139.0, 34293.23098578823, 24535.66635080175, -93.92203020120027, 1045.815771319362, 19653.84419606259, -494.4652908403028, -5869.791611408188, -11098.557543582625, 0.002, -0.01, 0.982, 192.0, 0.0, 16.0, 255.0, 176.0, 30.0, 176.0, 0.0, 0.0, 0.0, 1.686120653640447E9, 0.0, 2023-06-07 08:50:53.640
140.0, 34250.80737481205, 24497.020184638524, -136.0774202439094, 1054.175323745647, 19735.67393251347, -457.49550551122496, -5787.604247046023, -10975.377079889427, 0.002, -0.01, 0.982, 192.0, 0.0, 0.0, 0.0, 0.0, 0.0, 0.0, 0.0, 0.0, 0.0, 1.686120653644433E9, 0.0, 2023-06-07 08:50:53.644
141.0, 34213.74818250516, 24457.569355674907, -177.5175544640487, 1044.787591074418, 19898.752260059387, -434.78613314463297, -5734.340040009027, -10871.754392594623, 0.002, -0.01, 0.982, 192.0, 0.0, 0.0, 0.0, 0.0, 0.0, 0.0, 0.0, 0.0, 0.0, 1.686120653647449E9, 0.0, 2023-06-07 08:50:53.647
142.0, 34218.86673198542, 24456.250602752043, -175.7070631631688, 1039.5349311274208, 19918.310036457784, -435.8143133895771, -5788.632427290968, -10923.11870135292, 0.002, -0.01, 0.982, 192.0, 0.0, 0.0, 0.0, 0.0, 0.0, 0.0, 0.0, 0.0, 0.0, 1.686120653651441E9, 0.0, 2023-06-07 08:50:53.651
143.0, 34266.31948546404, 24496.12611486031, -132.8587690423452, 1052.0742597668482, 19771.19085445295, -445.269101294172, -5884.342597048592, -11070.394345568937, 0.002, -0.01, 0.982, 192.0, 0.0, 0.0, 0.0, 0.0, 0.0, 0.0, 0.0, 0.0, 0.0, 1.686120653656447E9, 0.0, 2023-06-07 08:50:53.656
144.0, 34266.52065116414, 24504.217446353134, -120.07357121390955, 1058.2209894920575, 19682.074449309643, -421.5315486826359, -5893.171536108439, -11106.6712268199, 0.002, -0.01, 0.982, 192.0, 0.0, 0.0, 0.0, 0.0, 0.0, 0.0, 0.0, 0.0, 0.0, 1.686120653660454E9, 0.0, 2023-06-07 08:50:53.660
145.0, 34203.04169691106, 24452.49550968355, -176.44467073019396, 1062.981911061038, 19811.15577353904, -354.3869083388935, -5809.866584523509, -10978.305158413072, 0.002, -0.01, 0.982, 192.0, 0.0, 0.0, 0.0, 0.0, 0.0, 0.0, 0.0, 0.0, 0.0, 1.686120653664437E9, 0.0, 2023-06-07 08:50:53.664
146.0, 34152.75027188662, 24403.38872711524, -231.0499824345091, 1040.4960561389992, 19986.57226402429, -318.3335445324832, -5771.153363126918, -10864.7135930912, 0.002, -0.01, 0.982, 192.0, 0.0, 0.0, 0.0, 0.0, 0.0, 0.0, 0.0, 0.0, 0.0, 1.686120653668558E9, 0.0, 2023-06-07 08:50:53.668
147.0, 34164.68610342575, 24410.653044063216, -220.32114509596173, 1033.5446636133986, 19991.24377861545, -310.8457101399553, -5819.433131150381, -10918.357779783939, 0.002, -0.01, 0.982, 192.0, 0.0, 0.0, 0.0, 0.0, 0.0, 0.0, 0.0, 0.0, 0.0, 1.686120653671579E9, 0.0, 2023-06-07 08:50:53.671
148.0, 34198.19136836426, 24442.88425956777, -183.97720861163242, 1062.244303494013, 19827.98663711389, -307.9399833607654, -5902.179289123927, -11037.000839352708, 0.002, -0.01, 0.982, 192.0, 0.0, 0.0, 0.0, 0.0, 0.0, 0.0, 0.0, 0.0, 0.0, 1.686120653675544E9, 0.0, 2023-06-07 08:50:53.675
149.0, 34207.914377202316, 24454.75303587354, -173.36012999536158, 1110.6805337286632, 19726.912048686987, -295.13243378787445, -5896.725463476832, -11037.112598074986, 0.002, -0.012, 0.976, 192.0, 0.0, 16.0, 255.0, 160.0, 30.0, 128.0, 0.0, 0.0, 0.0, 1.686120653679569E9, 0.0, 2023-06-07 08:50:53.679
150.0, 34171.54808897353, 24419.571390100886, -212.81095895897855, 1144.141095178258, 19825.48324173489, -259.5261048705703, -5800.635314063467, -10891.848610859945, 0.002, -0.012, 0.976, 192.0, 0.0, 0.0, 0.0, 0.0, 0.0, 0.0, 0.0, 0.0, 0.0, 1.686120653684586E9, 0.0, 2023-06-07 08:50:53.684
151.0, 34130.91261755379, 24378.06420064738, -253.7817065455564, 1146.555083579431, 19970.456656272014, -266.1198694848859, -5750.276833805661, -10781.22982755063, 0.002, -0.012, 0.976, 192.0, 0.0, 0.0, 0.0, 0.0, 0.0, 0.0, 0.0, 0.0, 0.0, 1.686120653688559E9, 0.0, 2023-06-07 08:50:53.688
152.0, 34139.56274265799, 24382.64630826072, -246.78561053104528, 1159.5637988524197, 19970.56841499429, -296.51824194410347, -5805.105662954529, -10824.771025749567, 0.002, -0.012, 0.976, 192.0, 0.0, 0.0, 0.0, 0.0, 0.0, 0.0, 0.0, 0.0, 0.0, 1.686120653692562E9, 0.0, 2023-06-07 08:50:53.692
153.0, 34171.54808897353, 24412.619997575286, -211.91688918076625, 1204.71432265214, 19813.882686362587, -304.52016645910345, -5897.619533255045, -10946.878605708911, 0.002, -0.012, 0.976, 192.0, 0.0, 0.0, 0.0, 0.0, 0.0, 0.0, 0.0, 0.0, 0.0, 1.686120653696573E9, 0.0, 2023-06-07 08:50:53.696
154.0, 34173.42563550778, 24413.759936542505, -211.31339208047297, 1238.1078288683689, 19718.9548276609, -268.60091311942494, -5912.5057950622795, -10967.755135030167, 0.002, -0.012, 0.976, 192.0, 0.0, 0.0, 0.0, 0.0, 0.0, 0.0, 0.0, 0.0, 0.0, 1.686120653699561E9, 0.0, 2023-06-07 08:50:53.699
155.0, 34144.83775434944, 24386.043773417925, -244.41632561878274, 1243.785171960017, 19827.025512102307, -200.9868861421211, -5839.862625582532, -10852.129560962863, 0.002, -0.012, 0.976, 192.0, 0.0, 0.0, 0.0, 0.0, 0.0, 0.0, 0.0, 0.0, 0.0, 1.686120653703548E9, 0.0, 2023-06-07 08:50:53.703
156.0, 34105.54338759701, 24348.694008433107, -281.9449045592433, 1223.9815263726148, 19995.6694240176, -184.1560225672749, -5806.156194943928, -10778.36880426035, 0.002, -0.012, 0.976, 192.0, 0.0, 0.0, 0.0, 0.0, 0.0, 0.0, 0.0, 0.0, 0.0, 1.686120653707671E9, 0.0, 2023-06-07 08:50:53.707
157.0, 34086.14207340981, 24327.638665156206, -301.05564606853085, 1231.8716921653381, 20025.509002865434, -231.87699697935548, -5895.876097187531, -10868.62514837088, 0.002, -0.012, 0.976, 192.0, 0.0, 0.0, 0.0, 0.0, 0.0, 0.0, 0.0, 0.0, 0.0, 1.686120653711692E9, 0.0, 2023-06-07 08:50:53.711
158.0, 34122.46365814968, 24359.132273093735, -265.35991017340547, 1282.744262545617, 19903.51318162837, -268.33269218596126, -5994.000255346329, -11032.03875208363, 0.002, -0.012, 0.976, 192.0, 0.0, 0.0, 0.0, 0.0, 0.0, 0.0, 0.0, 0.0, 0.0, 1.686120653716695E9, 0.0, 2023-06-07 08:50:53.716
159.0, 34125.25762620659, 24364.36258129628, -261.3812996603608, 1351.0064901121248, 19827.450195246958, -256.4192123912826, -5970.486220179346, -11062.839455943044, 0.006, -0.012, 0.978, 192.0, 0.0, 48.0, 255.0, 160.0, 30.0, 144.0, 0.0, 0.0, 0.0, 1.686120653720719E9, 0.0, 2023-06-07 08:50:53.720
160.0, 34078.430721572724, 24325.582304666317, -307.3141345160168, 1378.8791154478927, 19918.108870757686, -226.892557965822, -5880.676910957923, -10951.036030177598, 0.006, -0.012, 0.978, 192.0, 0.0, 0.0, 0.0, 0.0, 0.0, 0.0, 0.0, 0.0, 0.0, 1.686120653724697E9, 0.0, 2023-06-07 08:50:53.724
161.0, 34043.919628133735, 24293.932234517604, -342.89811168886564, 1401.901412236859, 20052.554613656357, -200.20457508618537, -5849.786800120688, -10884.561942167515, 0.006, -0.012, 0.978, 192.0, 0.0, 0.0, 0.0, 0.0, 0.0, 0.0, 0.0, 0.0, 0.0, 1.686120653727695E9, 0.0, 2023-06-07 08:50:53.727
162.0, 34039.292817031484, 24287.04789722537, -347.10023964646336, 1465.514476956663, 20051.39232294468, -215.00142991559864, -5929.560176081679, -10992.65497835338, 0.006, -0.012, 0.978, 192.0, 0.0, 0.0, 0.0, 0.0, 0.0, 0.0, 0.0, 0.0, 0.0, 1.686120653731692E9, 0.0, 2023-06-07 08:50:53.731
163.0, 34038.666968186735, 24281.61642332273, -349.0448414140751, 1504.96530592028, 19888.917492499055, -272.6689306102909, -6046.884482727585, -11179.49321025529, 0.006, -0.012, 0.978, 192.0, 0.0, 0.0, 0.0, 0.0, 0.0, 0.0, 0.0, 0.0, 0.0, 1.686120653735671E9, 0.0, 2023-06-07 08:50:53.735
164.0, 34038.01876759753, 24279.023620965912, -351.6823472598013, 1537.3306318915645, 19787.217055227407, -284.2471342381399, -6060.161418934038, -11227.437702111925, 0.006, -0.012, 0.978, 192.0, 0.0, 0.0, 0.0, 0.0, 0.0, 0.0, 0.0, 0.0, 0.0, 1.686120653739686E9, 0.0, 2023-06-07 08:50:53.739
165.0, 33980.73124655858, 24228.28516105237, -409.37219969894886, 1559.1235827354888, 19905.748356073902, -230.60294754540297, -5994.559048957712, -11155.085105310096, 0.006, -0.012, 0.978, 192.0, 0.0, 0.0, 0.0, 0.0, 0.0, 0.0, 0.0, 0.0, 0.0, 1.686120653743824E9, 0.0, 2023-06-07 08:50:53.743
166.0, 33919.107487095294, 24170.59530861322, -468.87254343897627, 1534.4919603457404, 20109.328044572838, -222.84689221941142, -5965.926464310463, -11119.858756048532, 0.006, -0.012, 0.978, 192.0, 0.0, 0.0, 0.0, 0.0, 0.0, 0.0, 0.0, 0.0, 0.0, 1.686120653748812E9, 0.0, 2023-06-07 08:50:53.748
167.0, 33892.93359433813, 24141.672151288054, -492.7665582616995, 1516.4317508258523, 20175.019821526985, -249.80309603251175, -6040.9389187024735, -11182.868323668043, 0.006, -0.012, 0.978, 192.0, 0.0, 0.0, 0.0, 0.0, 0.0, 0.0, 0.0, 0.0, 0.0, 1.686120653751829E9, 0.0, 2023-06-07 08:50:53.751
168.0, 33911.68670793613, 24153.719741549463, -475.913342942398, 1489.8778784129477, 20041.557555384345, -250.3171861549838, -6153.681117735043, -11308.552182740234, 0.006, -0.012, 0.978, 192.0, 0.0, 0.0, 0.0, 0.0, 0.0, 0.0, 0.0, 0.0, 0.0, 1.686120653755825E9, 0.0, 2023-06-07 08:50:53.755
169.0, 33906.45639973359, 24147.170680424057, -482.50710755671355, 1492.2918668141208, 19923.585048149234, -213.10153163689753, -6186.851106506719, -11347.712439025932, 0.004, -0.008, 0.98, 192.0, 0.0, 32.0, 255.0, 192.0, 30.0, 160.0, 0.0, 0.0, 0.0, 1.68612065375981E9, 0.0, 2023-06-07 08:50:53.759
170.0, 33850.73350080651, 24094.800543165275, -536.3077564606376, 1504.2276983532547, 19990.416764070604, -154.4282024417165, -6116.465463216957, -11249.722391333866, 0.004, -0.008, 0.98, 192.0, 0.0, 0.0, 0.0, 0.0, 0.0, 0.0, 0.0, 0.0, 0.0, 1.686120653763834E9, 0.0, 2023-06-07 08:50:53.763
171.0, 33796.93285190259, 24041.04459775026, -588.4990797637796, 1419.8722147789258, 20090.060840852362, -125.41563813872793, -6061.323709645714, -11167.423268249426, 0.004, -0.008, 0.98, 192.0, 0.0, 0.0, 0.0, 0.0, 0.0, 0.0, 0.0, 0.0, 0.0, 1.686120653767832E9, 0.0, 2023-06-07 08:50:53.767
172.0, 33773.59763069125, 24013.239027647858, -614.069475420651, 1436.0548777645681, 20035.455529148046, -146.4486296711719, -6099.768710108842, -11214.183117649927, 0.004, -0.008, 0.98, 192.0, 0.0, 0.0, 0.0, 0.0, 0.0, 0.0, 0.0, 0.0, 0.0, 1.686120653771826E9, 0.0, 2023-06-07 08:50:53.771
173.0, 33774.24583128045, 24010.17683865748, -613.6671440204555, 1451.3881744609089, 19816.095509063663, -199.93635415272166, -6199.725711312975, -11337.430636576491, 0.004, -0.008, 0.98, 192.0, 0.0, 0.0, 0.0, 0.0, 0.0, 0.0, 0.0, 0.0, 0.0, 1.686120653776819E9, 0.0, 2023-06-07 08:50:53.776
174.0, 33766.46742421001, 24004.745364754843, -621.4008476019917, 1449.935311071314, 19651.117283239044, -248.99843323212068, -6244.675069412598, -11387.92322730103, 0.004, -0.008, 0.98, 192.0, 0.0, 0.0, 0.0, 0.0, 0.0, 0.0, 0.0, 0.0, 0.0, 1.68612065377988E9, 0.0, 2023-06-07 08:50:53.779
175.0, 33712.756182283905, 23957.247907787314, -673.1674877604828, 1467.3249682575427, 19722.28523758474, -274.6805876112685, -6190.695606553031, -11311.90494440853, 0.004, -0.008, 0.98, 192.0, 0.0, 0.0, 0.0, 0.0, 0.0, 0.0, 0.0, 0.0, 0.0, 1.68612065378393E9, 0.0, 2023-06-07 08:50:53.783
176.0, 33648.89724837509, 23892.941938989396, -738.4122298255242, 1472.1752968043443, 19842.671733221025, -277.63101787936904, -6152.4070683010905, -11231.863347514076, 0.004, -0.008, 0.98, 192.0, 0.0, 0.0, 0.0, 0.0, 0.0, 0.0, 0.0, 0.0, 0.0, 1.686120653787922E9, 0.0, 2023-06-07 08:50:53.787
177.0, 33602.02564025231, 23845.735054699788, -780.0758814902165, 1536.2577481577098, 19788.8710843171, -356.5103240621477, -6209.806348062319, -11228.823510268154, 0.004, -0.008, 0.98, 192.0, 0.0, 0.0, 0.0, 0.0, 0.0, 0.0, 0.0, 0.0, 0.0, 1.686120653792063E9, 0.0, 2023-06-07 08:50:53.792
178.0, 33611.94981479047, 23850.33951405758, -772.8562680311524, 1610.5102432382398, 19562.246747284742, -483.93761920185324, -6287.255142599958, -11266.977938053364, 0.004, -0.008, 0.98, 192.0, 0.0, 0.0, 0.0, 0.0, 0.0, 0.0, 0.0, 0.0, 0.0, 1.68612065379595E9, 0.0, 2023-06-07 08:50:53.795
179.0, 33597.55529136125, 23836.70494993984, -787.9213437940292, 1748.8451896721351, 19389.288948689577, -575.8256406576205, -6314.188994668602, -11223.146167176506, 0.004, -0.008, 0.98, 192.0, 0.0, 0.0, 255.0, 160.0, 30.0, 96.0, 0.0, 0.0, 0.0, 1.686120653799992E9, 0.0, 2023-06-07 08:50:53.799
180.0, 33525.739136426346, 23770.94611775233, -858.9998911619057, 1894.1762321205417, 19468.168254872355, -637.2705861652597, -6295.05590141486, -11051.23890057074, 0.004, -0.008, 0.98, 192.0, 0.0, 0.0, 0.0, 0.0, 0.0, 0.0, 0.0, 0.0, 0.0, 1.686120653804944E9, 0.0, 2023-06-07 08:50:53.804
181.0, 33430.587760280105, 23673.559567160555, -957.2358080429802, 1967.132326022664, 19634.420530130927, -677.7942988627314, -6309.450424844078, -10921.308210052039, 0.004, -0.008, 0.98, 192.0, 0.0, 0.0, 0.0, 0.0, 0.0, 0.0, 0.0, 0.0, 0.0, 1.686120653807935E9, 0.0, 2023-06-07 08:50:53.807
182.0, 33370.28275373969, 23611.466421063713, -1016.8032070163736, 2000.9728671279988, 19674.519559683748, -662.5057056553013, -6445.013754965515, -10957.182759902807, 0.004, -0.008, 0.98, 192.0, 0.0, 0.0, 0.0, 0.0, 0.0, 0.0, 0.0, 0.0, 0.0, 1.686120653810954E9, 0.0, 2023-06-07 08:50:53.810
183.0, 33346.09816623905, 23583.817313172498, -1041.568939872854, 2036.0204024339203, 19536.11755801649, -573.2998935341709, -6622.2854402405555, -11161.164779801938, 0.004, -0.008, 0.98, 192.0, 0.0, 0.0, 0.0, 0.0, 0.0, 0.0, 0.0, 0.0, 0.0, 1.686120653815943E9, 0.0, 2023-06-07 08:50:53.815
184.0, 33307.004965186716, 23540.74550160712, -1082.8973153707166, 2009.6006404877473, 19438.485138235705, -443.34685127101557, -6698.616647555429, -11320.689179979467, 0.004, -0.008, 0.98, 192.0, 0.0, 0.0, 0.0, 0.0, 0.0, 0.0, 0.0, 0.0, 0.0, 1.686120653819947E9, 0.0, 2023-06-07 08:50:53.819
185.0, 33221.062507756054, 23457.328791299915, -1174.2041914706458, 1872.584446976715, 19519.264342697184, -363.7075857767565, -6669.000586152147, -11296.884572134564, 0.004, -0.008, 0.98, 192.0, 0.0, 0.0, 0.0, 0.0, 0.0, 0.0, 0.0, 0.0, 0.0, 1.686120653824053E9, 0.0, 2023-06-07 08:50:53.824
186.0, 33126.2687595211, 23365.664287288702, -1264.7511082590947, 1658.857066495069, 19653.777140829225, -400.9008885503875, -6671.0122431531245, -11259.51245540529, 0.004, -0.008, 0.98, 192.0, 0.0, 0.0, 0.0, 0.0, 0.0, 0.0, 0.0, 0.0, 0.0, 1.686120653828109E9, 0.0, 2023-06-07 08:50:53.828
187.0, 33061.94043897872, 23297.044431810908, -1326.4419229557423, 1474.186953805322, 19635.448710375873, -541.3368989630817, -6789.320026555065, -11386.000977277872, 0.004, -0.008, 0.98, 192.0, 0.0, 0.0, 0.0, 0.0, 0.0, 0.0, 0.0, 0.0, 0.0, 1.686120653833041E9, 0.0, 2023-06-07 08:50:53.833
188.0, 33024.59067399391, 23252.475053367027, -1366.9432839087588, 1420.609822345951, 19454.488987265708, -755.9807009673955, -6967.642243819505, -11669.286986504434, 0.004, -0.008, 0.98, 192.0, 0.0, 0.0, 0.0, 0.0, 0.0, 0.0, 0.0, 0.0, 0.0, 1.686120653836073E9, 0.0, 2023-06-07 08:50:53.836
189.0, 32962.74339708607, 23190.27014854791, -1429.058781750057, 1339.5400452065523, 19363.427980354783, -918.4108279241119, -7024.594488691627, -11871.100887191402, 0.002, -0.014, 0.97, 192.0, 0.0, 16.0, 255.0, 144.0, 30.0, 80.0, 0.0, 0.0, 0.0, 1.686120653839143E9, 0.0, 2023-06-07 08:50:53.839
190.0, 32855.18680276714, 23090.447257810505, -1531.4521230998187, 1211.710418666651, 19482.205150390288, -1006.2531836334687, -6979.399261402997, -11893.117355479879, 0.002, -0.014, 0.97, 192.0, 0.0, 0.0, 0.0, 0.0, 0.0, 0.0, 0.0, 0.0, 0.0, 1.686120653844067E9, 0.0, 2023-06-07 08:50:53.844
191.0, 32718.5729406563, 22955.420369555995, -1669.9435317449013, 1058.6680243811636, 19654.64885886298, -1131.758228750018, -6996.453642422395, -11926.488509951652, 0.002, -0.014, 0.97, 192.0, 0.0, 0.0, 0.0, 0.0, 0.0, 0.0, 0.0, 0.0, 0.0, 1.686120653848058E9, 0.0, 2023-06-07 08:50:53.848
192.0, 32670.40493135511, 22905.33011023165, -1717.1727677789652, 930.4807699299777, 19680.12984754203, -1233.1904450882012, -7153.9216821100335, -12074.568816968062, 0.002, -0.014, 0.97, 192.0, 0.0, 0.0, 0.0, 0.0, 0.0, 0.0, 0.0, 0.0, 0.0, 1.686120653852078E9, 0.0, 2023-06-07 08:50:53.852
193.0, 32689.13569320866, 22918.33882550464, -1699.2913722147193, 880.8375454947408, 19532.653037625914, -1262.9182652137597, -7373.818144061344, -12318.314590253185, 0.002, -0.014, 0.97, 192.0, 0.0, 0.0, 0.0, 0.0, 0.0, 0.0, 0.0, 0.0, 0.0, 1.686120653856075E9, 0.0, 2023-06-07 08:50:53.856
194.0, 32695.304774678323, 22923.904409874012, -1694.306933201186, 936.0463542993492, 19423.84474561748, -1259.4984483120977, -7492.394148396748, -12478.330728808729, 0.002, -0.014, 0.97, 192.0, 0.0, 0.0, 0.0, 0.0, 0.0, 0.0, 0.0, 0.0, 0.0, 1.686120653860191E9, 0.0, 2023-06-07 08:50:53.860
195.0, 32670.583745310756, 22904.078412542156, -1717.3739334790628, 1026.7944367878958, 19508.446098380817, -1166.8057640559393, -7468.433078340659, -12497.016787173367, 0.002, -0.014, 0.97, 192.0, 0.0, 0.0, 0.0, 0.0, 0.0, 0.0, 0.0, 0.0, 0.0, 1.686120653863168E9, 0.0, 2023-06-07 08:50:53.863
196.0, 32637.36905305017, 22871.33310691513, -1751.1921228399424, 1044.6758323521415, 19672.820827105144, -1016.9149657386502, -7462.6216247822795, -12591.20703830803, 0.002, -0.014, 0.97, 192.0, 0.0, 0.0, 0.0, 0.0, 0.0, 0.0, 0.0, 0.0, 0.0, 1.686120653867186E9, 0.0, 2023-06-07 08:50:53.867
197.0, 32621.342852275713, 22851.95414447238, -1770.8393062161574, 1032.561186857365, 19718.463089282883, -1020.5583000848652, -7567.138381855296, -12635.374085351717, 0.002, -0.014, 0.97, 192.0, 0.0, 0.0, 0.0, 0.0, 0.0, 0.0, 0.0, 0.0, 0.0, 1.68612065387128E9, 0.0, 2023-06-07 08:50:53.871
198.0, 32644.92394267606, 22871.377810404043, -1747.0346983712552, 992.1268811377146, 19644.188242457898, -1151.0254324704924, -7677.9806826091635, -12611.614180995724, 0.002, -0.014, 0.97, 192.0, 0.0, 0.0, 0.0, 0.0, 0.0, 0.0, 0.0, 0.0, 0.0, 1.686120653876206E9, 0.0, 2023-06-07 08:50:53.876
199.0, 32651.025968912363, 22874.19413020541, -1743.4584192584061, 823.795893644797, 19664.57303340114, -1254.8269337209385, -7601.872992738842, -12550.415104677095, 0.004, -0.012, 0.972, 192.0, 0.0, 32.0, 255.0, 160.0, 30.0, 96.0, 0.0, 0.0, 0.0, 1.686120653880195E9, 0.0, 2023-06-07 08:50:53.880
200.0, 32609.809352136774, 22837.671379765437, -1784.362111611618, 665.3890806900359, 20021.15041269665, -1317.098893773424, -7414.677132925646, -12355.865520938101, 0.004, -0.012, 0.972, 192.0, 0.0, 0.0, 0.0, 0.0, 0.0, 0.0, 0.0, 0.0, 0.0, 1.686120653884239E9, 0.0, 2023-06-07 08:50:53.884
201.0, 32571.006723762363, 22804.166114826934, -1819.2755364508077, 587.8508791745758, 20485.329089800012, -1481.607732964484, -7272.385927723161, -12167.328556457587, 0.004, -0.012, 0.972, 192.0, 0.0, 0.0, 0.0, 0.0, 0.0, 0.0, 0.0, 0.0, 0.0, 1.686120653887179E9, 0.0, 2023-06-07 08:50:53.887
202.0, 32572.079607496216, 22802.22151305932, -1817.9567835279447, 597.1045013790729, 20635.152832883934, -1687.8919825425128, -7243.351011675717, -12112.879706964459, 0.004, -0.012, 0.972, 192.0, 0.0, 0.0, 0.0, 0.0, 0.0, 0.0, 0.0, 0.0, 0.0, 1.686120653891266E9, 0.0, 2023-06-07 08:50:53.891
203.0, 32606.411886979567, 22830.38471107301, -1784.8762017340903, 587.7167687078439, 20511.748851746186, -1902.200508379997, -7243.351011675717, -12108.029378417657, 0.004, -0.012, 0.972, 192.0, 0.0, 0.0, 0.0, 0.0, 0.0, 0.0, 0.0, 0.0, 0.0, 1.686120653895327E9, 0.0, 2023-06-07 08:50:53.895
204.0, 32632.339910547726, 22856.066865452154, -1755.5507130087274, 539.6381663844784, 20315.813459850964, -2051.353699130261, -7148.534911696304, -12000.785708521094, 0.004, -0.012, 0.972, 192.0, 0.0, 0.0, 0.0, 0.0, 0.0, 0.0, 0.0, 0.0, 0.0, 1.686120653899293E9, 0.0, 2023-06-07 08:50:53.899
205.0, 32607.149494546593, 22838.632504777015, -1778.5953615421488, 388.33920816650493, 20288.14200021529, -2024.0398674058758, -6986.730633584337, -11839.048485642492, 0.004, -0.012, 0.972, 192.0, 0.0, 0.0, 0.0, 0.0, 0.0, 0.0, 0.0, 0.0, 0.0, 1.686120653904355E9, 0.0, 2023-06-07 08:50:53.904
206.0, 32589.73748561591, 22821.2875510797, -1798.2201931739085, 231.87699697935548, 20423.548868125545, -1942.2101309549967, -6915.853251916558, -11793.316816486933, 0.004, -0.012, 0.972, 192.0, 0.0, 0.0, 0.0, 0.0, 0.0, 0.0, 0.0, 0.0, 0.0, 1.686120653908295E9, 0.0, 2023-06-07 08:50:53.908
207.0, 32607.574177691244, 22832.530478540717, -1785.2114779009198, 137.0385452554876, 20431.684903107274, -1952.3354711932507, -6975.599464845594, -11838.959078664671, 0.004, -0.012, 0.972, 192.0, 0.0, 0.0, 0.0, 0.0, 0.0, 0.0, 0.0, 0.0, 0.0, 1.686120653912344E9, 0.0, 2023-06-07 08:50:53.912
208.0, 32661.5089370619, 22882.665441353973, -1729.2650615292862, 71.81615493490159, 20245.29370609447, -1938.2762239308624, -7080.675015529992, -11915.402044701821, 0.004, -0.012, 0.972, 192.0, 0.0, 0.0, 0.0, 0.0, 0.0, 0.0, 0.0, 0.0, 0.0, 1.686120653915328E9, 0.0, 2023-06-07 08:50:53.915
209.0, 32701.317393936803, 22923.971465107377, -1688.8307558096358, 112.76455077702413, 20145.51551884598, -1883.84972618219, -7091.5826668241825, -11870.028003457548, 0.004, -0.012, 0.972, 192.0, 0.0, 0.0, 0.0, 0.0, 0.0, 0.0, 0.0, 0.0, 0.0, 1.686120653919329E9, 0.0, 2023-06-07 08:50:53.919
210.0, 32692.24258568795, 22920.10461331661, -1698.7996338367027, 322.7815416790893, 20286.44326763669, -1806.333876411185, -7007.249534994309, -11616.626276567731, 0.004, -0.016, 0.978, 192.0, 0.0, 32.0, 255.0, 128.0, 30.0, 144.0, 0.0, 0.0, 0.0, 1.686120653923428E9, 0.0, 2023-06-07 08:50:53.923
211.0, 32696.55647236782, 22924.574962207673, -1695.2233547238536, 409.1710339988511, 20492.034613136606, -1723.8112358821913, -6916.0320658722, -11306.227601316883, 0.004, -0.016, 0.978, 192.0, 0.0, 0.0, 0.0, 0.0, 0.0, 0.0, 0.0, 0.0, 0.0, 1.686120653927479E9, 0.0, 2023-06-07 08:50:53.927
212.0, 32752.346426528267, 22976.945099466455, -1640.0592494081557, 419.4081329593817, 20582.11214329149, -1636.0582871506558, -6893.523859205707, -11193.865381940053, 0.004, -0.016, 0.978, 192.0, 0.0, 0.0, 0.0, 0.0, 0.0, 0.0, 0.0, 0.0, 0.0, 1.686120653931449E9, 0.0, 2023-06-07 08:50:53.931
213.0, 32832.67859610064, 23052.76221665886, -1559.861190302514, 420.05633354858566, 20422.475984391687, -1551.5910448540503, -6911.338199536586, -11203.02959716673, 0.004, -0.016, 0.978, 192.0, 0.0, 0.0, 0.0, 0.0, 0.0, 0.0, 0.0, 0.0, 0.0, 1.686120653936434E9, 0.0, 2023-06-07 08:50:53.936
214.0, 32890.949593895624, 23106.98754870743, -1504.7417884757267, 431.63453717643466, 20241.426854303703, -1403.287220393088, -6863.684280357872, -11100.345683139049, 0.004, -0.016, 0.978, 192.0, 0.0, 0.0, 0.0, 0.0, 0.0, 0.0, 0.0, 0.0, 0.0, 1.686120653940426E9, 0.0, 2023-06-07 08:50:53.940
215.0, 32892.357753796314, 23110.67558654256, -1506.7534454767044, 476.1815638758617, 20215.342368524358, -1187.7269968661067, -6776.154849070889, -10884.092555533953, 0.004, -0.016, 0.978, 192.0, 0.0, 0.0, 0.0, 0.0, 0.0, 0.0, 0.0, 0.0, 0.0, 1.686120653943436E9, 0.0, 2023-06-07 08:50:53.943
216.0, 32860.39475922522, 23085.70868798598, -1534.4919603457404, 449.4265257628591, 20182.28413847496, -1044.2511492074907, -6700.114214433935, -10690.325282850896, 0.004, -0.016, 0.978, 192.0, 0.0, 0.0, 0.0, 0.0, 0.0, 0.0, 0.0, 0.0, 0.0, 1.686120653947452E9, 0.0, 2023-06-07 08:50:53.947
217.0, 32865.02157032747, 23088.927339187543, -1528.278175387165, 417.61999340295716, 19940.170042535072, -884.1009001852156, -6701.790595268082, -10706.776166770002, 0.004, -0.016, 0.978, 192.0, 0.0, 0.0, 0.0, 0.0, 0.0, 0.0, 0.0, 0.0, 0.0, 1.686120653951422E9, 0.0, 2023-06-07 08:50:53.951
218.0, 32914.84360871835, 23129.58516235175, -1482.0771195980453, 437.89302562392066, 19514.190496705833, -782.6910355914874, -6773.450287991797, -10790.438746266216, 0.004, -0.016, 0.978, 192.0, 0.0, 0.0, 0.0, 0.0, 0.0, 0.0, 0.0, 0.0, 0.0, 1.686120653955422E9, 0.0, 2023-06-07 08:50:53.955
219.0, 32931.62976880428, 23145.589011381748, -1468.5319624581293, 441.91633962587593, 19126.83476529536, -649.809914804687, -6778.658244449884, -10627.226308253565, 0.004, -0.016, 0.978, 192.0, 0.0, 0.0, 0.0, 0.0, 0.0, 0.0, 0.0, 0.0, 0.0, 1.686120653959444E9, 0.0, 2023-06-07 08:50:53.959
220.0, 32893.050657874424, 23113.290740643828, -1506.7757972211598, 467.79965970512154, 18852.109474195182, -414.2225282457505, -6699.980103967203, -10335.871319278636, 0.002, -0.016, 0.98, 192.0, 0.0, 16.0, 255.0, 128.0, 30.0, 160.0, 0.0, 0.0, 0.0, 1.686120653964445E9, 0.0, 2023-06-07 08:50:53.964
221.0, 32839.60763688179, 23064.832158664725, -1554.9438065223464, 504.59063107855695, 18684.627852991565, -255.88277052435527, -6622.106626284913, -10150.217729832857, 0.002, -0.016, 0.98, 192.0, 0.0, 0.0, 0.0, 0.0, 0.0, 0.0, 0.0, 0.0, 0.0, 1.68612065396742E9, 0.0, 2023-06-07 08:50:53.967
222.0, 32835.71843334656, 23059.579498717725, -1557.5142571347067, 570.2153527993385, 18453.577870557056, -328.92827140429875, -6620.07261753948, -10108.844650846082, 0.002, -0.016, 0.98, 192.0, 0.0, 0.0, 0.0, 0.0, 0.0, 0.0, 0.0, 0.0, 0.0, 1.686120653971437E9, 0.0, 2023-06-07 08:50:53.971
223.0, 32872.017666341984, 23087.206254864486, -1527.9876027092462, 657.3424526861254, 17940.717094030035, -337.6230999974132, -6570.1611721707795, -10148.764866443262, 0.002, -0.016, 0.98, 192.0, 0.0, 0.0, 0.0, 0.0, 0.0, 0.0, 0.0, 0.0, 0.0, 1.686120653975427E9, 0.0, 2023-06-07 08:50:53.975
224.0, 32869.223698285066, 23082.75825771788, -1534.536663834651, 749.9457299644625, 17516.078652868113, -368.5802660680135, -6488.443194442177, -10122.367456241544, 0.002, -0.016, 0.98, 192.0, 0.0, 0.0, 0.0, 0.0, 0.0, 0.0, 0.0, 0.0, 0.0, 1.686120653979572E9, 0.0, 2023-06-07 08:50:53.979
225.0, 32839.227657226045, 23056.51730972735, -1562.7222135927932, 853.8813416816404, 17643.573003241185, -288.6057244069248, -6345.123808994747, -10179.230294135845, 0.002, -0.016, 0.98, 192.0, 0.0, 0.0, 0.0, 0.0, 0.0, 0.0, 0.0, 0.0, 0.0, 1.686120653983585E9, 0.0, 2023-06-07 08:50:53.983
226.0, 32797.25108113898, 23018.072309264222, -1601.9942286007679, 929.9666798075057, 17846.81741557329, -45.12817205526496, -6216.288353954358, -10259.920091619504, 0.002, -0.016, 0.98, 192.0, 0.0, 0.0, 0.0, 0.0, 0.0, 0.0, 0.0, 0.0, 0.0, 1.686120653987558E9, 0.0, 2023-06-07 08:50:53.987
227.0, 32793.093656670295, 23011.970283027924, -1605.9057838804465, 1050.0849545103258, 17751.822501638235, 80.84625969484564, -6197.423481634079, -10387.034462336835, 0.002, -0.016, 0.98, 192.0, 0.0, 0.0, 0.0, 0.0, 0.0, 0.0, 0.0, 0.0, 0.0, 1.686120653992564E9, 0.0, 2023-06-07 08:50:53.992
228.0, 32841.50753516049, 23058.216042305954, -1554.4967716332403, 1172.7066245921403, 17679.268739136307, 81.13683237276464, -6350.957614297583, -10604.539287631427, 0.002, -0.016, 0.98, 192.0, 0.0, 0.0, 0.0, 0.0, 0.0, 0.0, 0.0, 0.0, 0.0, 1.686120653995591E9, 0.0, 2023-06-07 08:50:53.995
229.0, 32878.4102652562, 23094.47057181246, -1516.051771170112, 1248.523741784542, 17964.02996349692, 84.4895940410607, -6453.820342280906, -10810.778833720546, 0.002, -0.016, 0.98, 192.0, 0.0, 0.0, 0.0, 0.0, 0.0, 0.0, 0.0, 0.0, 0.0, 1.686120653998554E9, 0.0, 2023-06-07 08:50:53.998
230.0, 32849.509459675486, 23068.542548244306, -1547.2995099186314, 1355.4768390031861, 18598.52893334972, -0.9387732671228967, -6417.766978474496, -10887.735889880169, 0.002, -0.016, 0.98, 192.0, 0.0, 16.0, 255.0, 128.0, 30.0, 160.0, 0.0, 0.0, 0.0, 1.68612065400355E9, 0.0, 2023-06-07 08:50:54.003
231.0, 32815.28893891441, 23036.400739717574, -1584.3363504810752, 1494.0800063705453, 19393.245207458163, -31.538311426438266, -6434.620193793798, -10868.066354759498, 0.002, -0.016, 0.98, 192.0, 0.0, 0.0, 0.0, 0.0, 0.0, 0.0, 0.0, 0.0, 0.0, 1.686120654007551E9, 0.0, 2023-06-07 08:50:54.007
232.0, 32824.38609890772, 23042.435710720507, -1575.2391904877652, 1502.0372273966345, 19699.75467917379, -3.2186512015642172, -6415.397693562233, -10953.02533543412, 0.002, -0.016, 0.98, 192.0, 0.0, 0.0, 0.0, 0.0, 0.0, 0.0, 0.0, 0.0, 0.0, 1.686120654011564E9, 0.0, 2023-06-07 08:50:54.011
233.0, 32863.79222438243, 23079.986641405423, -1532.1003236890226, 1472.6223316934504, 19588.130067363985, 249.66898556577988, -6458.044821982959, -11144.512730182736, 0.002, -0.016, 0.98, 192.0, 0.0, 0.0, 0.0, 0.0, 0.0, 0.0, 0.0, 0.0, 0.0, 1.686120654015709E9, 0.0, 2023-06-07 08:50:54.015
234.0, 32886.4121897712, 23105.28881612883, -1508.0051431662016, 1422.3756101579202, 19573.78024742368, 535.5477971491572, -6367.676719150152, -11257.925481548964, 0.002, -0.016, 0.98, 192.0, 0.0, 0.0, 0.0, 0.0, 0.0, 0.0, 0.0, 0.0, 0.0, 1.686120654019691E9, 0.0, 2023-06-07 08:50:54.019
235.0, 32836.47839265804, 23062.820501663748, -1556.9778152677793, 1374.31935957901, 19782.366726680604, 504.56827933410165, -6196.931743256062, -11237.27246967226, 0.002, -0.016, 0.98, 192.0, 0.0, 0.0, 0.0, 0.0, 0.0, 0.0, 0.0, 0.0, 0.0, 1.686120654023701E9, 0.0, 2023-06-07 08:50:54.023
236.0, 32765.62336273472, 22993.395983385562, -1626.3129265681418, 1299.5974778649186, 20466.464217479734, 520.5497766196462, -6148.6519752325985, -11220.039274697217, 0.002, -0.016, 0.98, 192.0, 0.0, 0.0, 0.0, 0.0, 0.0, 0.0, 0.0, 0.0, 0.0, 1.686120654026688E9, 0.0, 2023-06-07 08:50:54.026
237.0, 32708.335841695767, 22925.469031985886, -1689.3001424431973, 1242.3770120593324, 21074.074038752802, 681.3035227422146, -6233.700362885042, -11340.492825566867, 0.002, -0.016, 0.98, 192.0, 0.0, 0.0, 0.0, 0.0, 0.0, 0.0, 0.0, 0.0, 0.0, 1.686120654031686E9, 0.0, 2023-06-07 08:50:54.031
238.0, 32685.80528328482, 22894.48951417083, -1709.9755060643563, 1128.8077984819172, 21544.198279881275, 706.0245521097842, -6378.763184399985, -11555.963642116028, 0.002, -0.016, 0.98, 192.0, 0.0, 0.0, 0.0, 0.0, 0.0, 0.0, 0.0, 0.0, 0.0, 1.6861206540357E9, 0.0, 2023-06-07 08:50:54.035
239.0, 32667.812128998296, 22873.612984849573, -1728.952137106912, 1078.695187413119, 21848.27141145127, 656.6048451191002, -6383.524105968965, -11697.673701962674, 0.002, -0.016, 0.98, 192.0, 0.0, 0.0, 0.0, 0.0, 0.0, 0.0, 0.0, 0.0, 0.0, 1.686120654039716E9, 0.0, 2023-06-07 08:50:54.039
240.0, 32587.479959425924, 22799.31578628013, -1810.8712805356122, 1008.8906894791949, 22535.83342264097, 788.2566199608589, -6427.735856501563, -11752.100199711347, 0.002, -0.012, 0.972, 192.0, 0.0, 16.0, 255.0, 160.0, 30.0, 96.0, 0.0, 0.0, 0.0, 1.686120654043688E9, 0.0, 2023-06-07 08:50:54.043
241.0, 32506.723106708898, 22723.901000487924, -1886.2860663278184, 1100.1528620902136, 23307.907379616187, 892.1251764446708, -6468.527790132498, -11765.623005106809, 0.002, -0.012, 0.972, 192.0, 0.0, 0.0, 0.0, 0.0, 0.0, 0.0, 0.0, 0.0, 0.0, 1.686120654047686E9, 0.0, 2023-06-07 08:50:54.047
242.0, 32450.128489748062, 22665.428836992844, -1940.6231570986697, 1178.2945607059671, 23857.603831005556, 804.5957451576884, -6563.2991866229995, -11931.942335598747, 0.002, -0.012, 0.972, 192.0, 0.0, 0.0, 0.0, 0.0, 0.0, 0.0, 0.0, 0.0, 0.0, 1.686120654051801E9, 0.0, 2023-06-07 08:50:54.051
243.0, 32402.675736269444, 22605.66027231935, -1990.0875675782643, 1159.2508744300455, 24365.34605805231, 774.5773523542109, -6839.052657968124, -12238.496510803285, 0.002, -0.012, 0.972, 192.0, 0.0, 0.0, 0.0, 0.0, 0.0, 0.0, 0.0, 0.0, 0.0, 1.686120654054818E9, 0.0, 2023-06-07 08:50:54.054
244.0, 32350.35030249957, 22541.37665526589, -2047.352736872761, 1081.0197688364708, 25016.362967057583, 948.3621654942234, -7021.688761912437, -12432.308486975251, 0.002, -0.012, 0.972, 192.0, 0.0, 0.0, 0.0, 0.0, 0.0, 0.0, 0.0, 0.0, 0.0, 1.686120654058815E9, 0.0, 2023-06-07 08:50:54.058
245.0, 32270.174595138385, 22459.278697881546, -2130.1435983352185, 1018.948974484083, 25870.423122694865, 1282.9901317346255, -6941.535406295706, -12423.948934548967, 0.002, -0.012, 0.972, 192.0, 0.0, 0.0, 0.0, 0.0, 0.0, 0.0, 0.0, 0.0, 0.0, 1.68612065406383E9, 0.0, 2023-06-07 08:50:54.063
246.0, 32183.94156502981, 22370.877548560806, -2208.173538228695, 1001.760482997952, 26764.850528818435, 1604.3858652574856, -6985.501287639295, -12368.673070510993, 0.002, -0.012, 0.972, 192.0, 0.0, 0.0, 0.0, 0.0, 0.0, 0.0, 0.0, 0.0, 0.0, 1.686120654067831E9, 0.0, 2023-06-07 08:50:54.067
247.0, 32154.280800137618, 22324.676492771687, -2234.861521108332, 890.8958304996289, 27782.234881190645, 1776.5837045411713, -7116.728379336403, -12462.460990245461, 0.002, -0.012, 0.972, 192.0, 0.0, 0.0, 0.0, 0.0, 0.0, 0.0, 0.0, 0.0, 0.0, 1.686120654071826E9, 0.0, 2023-06-07 08:50:54.071
248.0, 32195.98915529122, 22351.677400073695, -2194.9860090000643, 869.2593418668916, 28650.443691068136, 1953.2518927159183, -7229.917613258078, -12605.735672203979, 0.002, -0.012, 0.972, 192.0, 0.0, 0.0, 0.0, 0.0, 0.0, 0.0, 0.0, 0.0, 0.0, 1.686120654074816E9, 0.0, 2023-06-07 08:50:54.074
249.0, 32226.298120772615, 22381.494627177075, -2164.565284796391, 1060.3444052153118, 29207.337404172114, 2200.417482902704, -7320.173957368607, -12685.397289442693, 0.002, -0.012, 0.972, 192.0, 0.0, 0.0, 0.0, 0.0, 0.0, 0.0, 0.0, 0.0, 0.0, 1.68612065407882E9, 0.0, 2023-06-07 08:50:54.078
250.0, 32241.29614130213, 22408.249665290077, -2147.37679331026, 1136.65326078573, 29550.70490249454, 2315.2607459140713, -7164.829333404224, -12548.58226163176, 0.002, -0.012, 0.972, 192.0, 0.0, 0.0, 255.0, 160.0, 30.0, 80.0, 0.0, 0.0, 0.0, 1.68612065408281E9, 0.0, 2023-06-07 08:50:54.082
251.0, 32246.459394271304, 22420.788993929506, -2140.447752529115, 1084.9089723716943, 29459.621543839163, 2437.167160173316, -7014.20092751991, -12341.314535297697, 0.002, -0.012, 0.972, 192.0, 0.0, 0.0, 0.0, 0.0, 0.0, 0.0, 0.0, 0.0, 0.0, 1.686120654086814E9, 0.0, 2023-06-07 08:50:54.086
252.0, 32247.599333238526, 22430.467299278655, -2140.8053804404, 1072.168478032169, 29150.653380233456, 2501.361370248958, -7099.271666916808, -12361.20758786292, 0.002, -0.012, 0.972, 192.0, 0.0, 0.0, 0.0, 0.0, 0.0, 0.0, 0.0, 0.0, 0.0, 1.686120654091828E9, 0.0, 2023-06-07 08:50:54.091
253.0, 32272.119196905995, 22458.54109031452, -2119.5041679744922, 1064.1889052616245, 28948.235982446193, 2287.7681002340437, -7176.5192957543495, -12553.030258778366, 0.002, -0.012, 0.972, 192.0, 0.0, 0.0, 0.0, 0.0, 0.0, 0.0, 0.0, 0.0, 0.0, 1.686120654095943E9, 0.0, 2023-06-07 08:50:54.095
254.0, 32309.357203168536, 22503.98218679216, -2082.6684931121463, 987.3883113131895, 28662.62539179628, 1894.1091768871759, -7223.86029051069, -12606.249762326452, 0.002, -0.012, 0.972, 192.0, 0.0, 0.0, 0.0, 0.0, 0.0, 0.0, 0.0, 0.0, 0.0, 1.686120654099921E9, 0.0, 2023-06-07 08:50:54.099
255.0, 32295.521473350702, 22500.092983256935, -2091.1174525162523, 819.63846917611, 28470.847424369746, 1326.5983851669296, -7271.178933522575, -12542.323773184273, 0.002, -0.012, 0.972, 192.0, 0.0, 0.0, 0.0, 0.0, 0.0, 0.0, 0.0, 0.0, 0.0, 1.686120654102947E9, 0.0, 2023-06-07 08:50:54.102
0.0, 32256.204754853818, 22467.146511929812, -2125.0697523438635, 728.4657035429125, 28222.899523127024, 684.2986564992257, -7335.194329642574, -12443.618469669638, 0.002, -0.012, 0.972, 192.0, 0.0, 0.0, 0.0, 0.0, 0.0, 0.0, 0.0, 0.0, 0.0, 1.686120654106952E9, 0.0, 2023-06-07 08:50:54.106
1.0, 32242.19021108034, 22452.059084422483, -2140.2018833401066, 696.9273921164743, 27656.1263389738, 138.75962957854625, -7450.439924054137, -12449.720495905936, 0.002, -0.012, 0.972, 192.0, 0.0, 0.0, 0.0, 0.0, 0.0, 0.0, 0.0, 0.0, 0.0, 1.686120654110947E9, 0.0, 2023-06-07 08:50:54.110
2.0, 32285.351429623537, 22492.962776775694, -2093.7549583619784, 617.5116440667682, 26924.553742951604, -216.34253458291707, -7602.252972394583, -12604.171050092107, 0.002, -0.012, 0.972, 192.0, 0.0, 0.0, 0.0, 0.0, 0.0, 0.0, 0.0, 0.0, 0.0, 1.686120654114939E9, 0.0, 2023-06-07 08:50:54.114
3.0, 32332.513610424237, 22535.900477874337, -2052.895969497677, 403.35958044047123, 26245.932429544024, -440.4858279807363, -7703.014636399107, -12673.908492792665, 0.002, -0.012, 0.972, 192.0, 0.0, 0.0, 0.0, 0.0, 0.0, 0.0, 0.0, 0.0, 0.0, 1.686120654119027E9, 0.0, 2023-06-07 08:50:54.119
4.0, 32322.164752741428, 22528.904381859826, -2066.8881615266996, 128.72369631811338, 25786.067639120538, -708.9749823778848, -7693.537496750057, -12559.713430370502, 0.002, -0.014, 0.968, 192.0, 0.0, 16.0, 255.0, 144.0, 30.0, 64.0, 0.0, 0.0, 0.0, 1.686120654123925E9, 0.0, 2023-06-07 08:50:54.123
5.0, 32288.592432569556, 22497.880160555862, -2100.8181096098556, -67.92695139967816, 25482.642708139745, -996.1948986285805, -7656.567711420979, -12432.12967301961, 0.002, -0.014, 0.968, 192.0, 0.0, 0.0, 0.0, 0.0, 0.0, 0.0, 0.0, 0.0, 0.0, 1.686120654128114E9, 0.0, 2023-06-07 08:50:54.128
6.0, 32276.34367660805, 22481.339869658932, -2116.6878481731237, -188.87224064734468, 25084.75930509082, -1235.6044334893745, -7685.736737935154, -12467.713650192458, 0.002, -0.014, 0.968, 192.0, 0.0, 0.0, 0.0, 0.0, 0.0, 0.0, 0.0, 0.0, 0.0, 1.686120654131073E9, 0.0, 2023-06-07 08:50:54.131
7.0, 32288.860653503023, 22490.504084885608, -2101.153385776685, -245.600968074914, 24552.81013879897, -1456.3726134744422, -7783.905599582863, -12697.914266337666, 0.002, -0.014, 0.968, 192.0, 0.0, 0.0, 0.0, 0.0, 0.0, 0.0, 0.0, 0.0, 0.0, 1.686120654135076E9, 0.0, 2023-06-07 08:50:54.135
8.0, 32267.492385803747, 22471.750971287605, -2117.8054353958887, -297.7475878891454, 24202.98298632896, -1651.1010111690773, -7873.871371015474, -12870.849713188376, 0.002, -0.014, 0.968, 192.0, 0.0, 0.0, 0.0, 0.0, 0.0, 0.0, 0.0, 0.0, 0.0, 1.686120654139063E9, 0.0, 2023-06-07 08:50:54.139
9.0, 32195.36330644647, 22406.617987944843, -2187.38641588526, -344.596844267469, 24134.0949099177, -1860.2239322929304, -7871.144458191927, -12924.158623714284, 0.002, -0.014, 0.968, 192.0, 0.0, 0.0, 0.0, 0.0, 0.0, 0.0, 0.0, 0.0, 0.0, 1.686120654143069E9, 0.0, 2023-06-07 08:50:54.143
10.0, 32118.607415986946, 22329.057434684924, -2263.4494022666695, -442.56454021507983, 24249.631077007187, -2088.256429225973, -7854.492408572723, -12939.335458199437, 0.002, -0.014, 0.968, 192.0, 0.0, 0.0, 0.0, 0.0, 0.0, 0.0, 0.0, 0.0, 0.0, 1.686120654147055E9, 0.0, 2023-06-07 08:50:54.147
11.0, 32049.518173875593, 22258.045942550416, -2331.599871110901, -588.7896524416986, 24249.65342875164, -2217.8071400889326, -7976.085898409593, -13043.606346083445, 0.002, -0.014, 0.968, 192.0, 0.0, 0.0, 0.0, 0.0, 0.0, 0.0, 0.0, 0.0, 0.0, 1.686120654151067E9, 0.0, 2023-06-07 08:50:54.151
12.0, 32024.61833055238, 22226.552334612887, -2362.7134993926884, -722.676601728988, 24014.13309742607, -2247.1326288142955, -8167.439182691477, -13244.794397925663, 0.002, -0.014, 0.968, 192.0, 0.0, 0.0, 0.0, 0.0, 0.0, 0.0, 0.0, 0.0, 0.0, 1.686120654156076E9, 0.0, 2023-06-07 08:50:54.156
13.0, 32009.86617921188, 22213.856543762275, -2380.013749601096, -740.3791833375911, 23785.34064118155, -2218.7235616116004, -8273.29704443181, -13312.453128391879, 0.002, -0.014, 0.968, 192.0, 0.0, 0.0, 0.0, 0.0, 0.0, 0.0, 0.0, 0.0, 0.0, 1.68612065415906E9, 0.0, 2023-06-07 08:50:54.159
14.0, 31974.215146805665, 22188.844941716783, -2410.1215493823947, -644.3784409020473, 23675.77238986163, -2076.0076732644648, -8251.839369754716, -13181.583664606056, 0.008, -0.006, 0.972, 192.0, 0.0, 64.0, 255.0, 208.0, 30.0, 96.0, 0.0, 0.0, 0.0, 1.68612065416308E9, 0.0, 2023-06-07 08:50:54.163
15.0, 31920.012166501543, 22139.827566126296, -2462.8940180413747, -575.9597511243524, 23765.291126405136, -2014.9427074125658, -8221.932735673516, -13059.051401502062, 0.008, -0.006, 0.972, 192.0, 0.0, 0.0, 0.0, 0.0, 0.0, 0.0, 0.0, 0.0, 0.0, 1.686120654167047E9, 0.0, 2023-06-07 08:50:54.167
16.0, 31824.234941510553, 22041.79281494532, -2561.845190745019, -576.4514895023691, 23735.965637679772, -2115.5255574614475, -8321.2638880329, -13199.688577614854, 0.008, -0.006, 0.972, 192.0, 0.0, 0.0, 0.0, 0.0, 0.0, 0.0, 0.0, 0.0, 0.0, 1.686120654171187E9, 0.0, 2023-06-07 08:50:54.171
17.0, 31695.17596902561, 21905.693042956955, -2695.978009221317, -664.9867492898404, 23468.191739105194, -2302.252030641083, -8558.1700275147, -13542.63139279263, 0.008, -0.006, 0.972, 192.0, 0.0, 0.0, 0.0, 0.0, 0.0, 0.0, 0.0, 0.0, 0.0, 1.686120654175186E9, 0.0, 2023-06-07 08:50:54.175
18.0, 31515.46794360494, 21723.9286570464, -2876.7142148869298, -857.569379516766, 23115.68237730055, -2497.293352758092, -8790.78463206108, -13892.74911794056, 0.008, -0.006, 0.972, 192.0, 0.0, 0.0, 0.0, 0.0, 0.0, 0.0, 0.0, 0.0, 0.0, 1.686120654179192E9, 0.0, 2023-06-07 08:50:54.179
19.0, 31225.364652319513, 21438.072197207475, -3169.097384106801, -1115.2179378530907, 22894.62362463756, -2749.644547658509, -8938.44025593284, -14013.023854854568, 0.008, -0.006, 0.972, 192.0, 0.0, 0.0, 0.0, 0.0, 0.0, 0.0, 0.0, 0.0, 0.0, 1.686120654184197E9, 0.0, 2023-06-07 08:50:54.184
20.0, 30873.34702889288, 21089.78731510488, -3523.2384232566865, -1414.284278665099, 22812.346853297575, -3136.6426511576956, -9156.660337050002, -14179.969034191256, 0.008, -0.006, 0.972, 192.0, 0.0, 0.0, 0.0, 0.0, 0.0, 0.0, 0.0, 0.0, 0.0, 1.686120654187187E9, 0.0, 2023-06-07 08:50:54.187
21.0, 30611.6751565546, 20824.181535742468, -3789.1571270414743, -1673.6762730689375, 22563.50488227664, -3477.3502918899408, -9424.68010481359, -14471.033450488265, 0.008, -0.006, 0.972, 192.0, 0.0, 0.0, 0.0, 0.0, 0.0, 0.0, 0.0, 0.0, 0.0, 1.686120654191219E9, 0.0, 2023-06-07 08:50:54.191
22.0, 30529.487792192438, 20737.412063766966, -3870.852753025622, -1817.1744724720088, 22163.29689780437, -3703.147614377453, -9614.334656516869, -14719.696607553555, 0.008, -0.006, 0.972, 192.0, 0.0, 0.0, 0.0, 0.0, 0.0, 0.0, 0.0, 0.0, 0.0, 1.686120654195186E9, 0.0, 2023-06-07 08:50:54.195
23.0, 30547.74916741242, 20754.242927341813, -3850.400906849016, -1816.5486236272602, 21882.08960081215, -3796.600257945092, -9646.543520276968, -14789.970492121041, 0.008, -0.006, 0.972, 192.0, 0.0, 0.0, 0.0, 0.0, 0.0, 0.0, 0.0, 0.0, 0.0, 1.686120654199223E9, 0.0, 2023-06-07 08:50:54.199
24.0, 30572.090217124252, 20783.74723002282, -3825.657525736991, -1823.4776644084054, 21828.445414119415, -3740.586786340092, -9520.680847249132, -14677.47416227748, 0.004, -0.008, 0.974, 192.0, 0.0, 32.0, 255.0, 192.0, 30.0, 112.0, 0.0, 0.0, 0.0, 1.686120654203203E9, 0.0, 2023-06-07 08:50:54.203
25.0, 30633.24458995397, 20845.572155186197, -3763.2961587066843, -1849.5621501877488, 21926.5248687893, -3647.8717503394787, -9384.514020027402, -14475.034412745765, 0.004, -0.008, 0.974, 192.0, 0.0, 0.0, 0.0, 0.0, 0.0, 0.0, 0.0, 0.0, 0.0, 1.686120654207323E9, 0.0, 2023-06-07 08:50:54.207
26.0, 30680.764398665953, 20889.1804086185, -3712.691809259869, -1918.293764387818, 21794.02372765824, -3633.0078402766994, -9327.785292599832, -14427.224031355863, 0.004, -0.008, 0.974, 192.0, 0.0, 0.0, 0.0, 0.0, 0.0, 0.0, 0.0, 0.0, 0.0, 1.686120654211347E9, 0.0, 2023-06-07 08:50:54.211
27.0, 30657.54093617689, 20859.519643726308, -3737.1893211828856, -2031.035963420387, 21312.567152090927, -3761.485667405804, -9420.612087322723, -14595.219742681951, 0.004, -0.008, 0.974, 192.0, 0.0, 0.0, 0.0, 0.0, 0.0, 0.0, 0.0, 0.0, 0.0, 1.686120654214339E9, 0.0, 2023-06-07 08:50:54.214
28.0, 30680.69734343259, 20882.296071326266, -3713.7870447381792, -1985.483108220471, 20852.74706515635, -3814.6381157205246, -9445.064895756828, -14634.067074545273, 0.004, -0.008, 0.974, 192.0, 0.0, 0.0, 0.0, 0.0, 0.0, 0.0, 0.0, 0.0, 0.0, 1.686120654218323E9, 0.0, 2023-06-07 08:50:54.218
29.0, 30717.622425272755, 20922.149231690077, -3676.3925762644503, -1916.2821073868404, 20731.645313697496, -3769.2193709873404, -9328.545251911313, -14423.245420842817, 0.004, -0.008, 0.974, 192.0, 0.0, 0.0, 0.0, 0.0, 0.0, 0.0, 0.0, 0.0, 0.0, 1.686120654223309E9, 0.0, 2023-06-07 08:50:54.223
30.0, 30784.431789449667, 20993.294834291322, -3608.4879766092276, -1851.260882766352, 20892.197894119967, -3683.0310443676767, -9090.789746140212, -14126.615420176438, 0.004, -0.008, 0.974, 192.0, 0.0, 0.0, 0.0, 0.0, 0.0, 0.0, 0.0, 0.0, 0.0, 1.686120654227362E9, 0.0, 2023-06-07 08:50:54.227
31.0, 30907.053459531482, 21113.904847372156, -3486.648617583349, -1782.1939923994532, 20978.43092422854, -3600.620162560959, -8933.880500063957, -13975.696441614205, 0.004, -0.008, 0.974, 192.0, 0.0, 0.0, 0.0, 0.0, 0.0, 0.0, 0.0, 0.0, 0.0, 1.686120654231432E9, 0.0, 2023-06-07 08:50:54.231
32.0, 31046.260123999135, 21249.44582574914, -3345.027964714523, -1736.4176197549846, 20823.42157643099, -3534.0790193175103, -8919.173052212363, -13988.056956297989, 0.004, -0.008, 0.974, 192.0, 0.0, 0.0, 0.0, 0.0, 0.0, 0.0, 0.0, 0.0, 0.0, 1.68612065423542E9, 0.0, 2023-06-07 08:50:54.235
33.0, 31188.84190187954, 21391.848789673903, -3201.999151945013, -1674.145659702499, 20711.57344717663, -3414.251317292609, -8801.424062421807, -13936.603240561873, 0.004, -0.008, 0.974, 192.0, 0.0, 0.0, 0.0, 0.0, 0.0, 0.0, 0.0, 0.0, 0.0, 1.686120654238441E9, 0.0, 2023-06-07 08:50:54.238
34.0, 31282.1827867249, 21490.44233446626, -3108.367694421732, -1607.5821647145945, 20833.68102713597, -3286.354635519342, -8589.574228474406, -13639.481501517475, 0.004, -0.006, 0.974, 192.0, 0.0, 32.0, 255.0, 208.0, 30.0, 112.0, 0.0, 0.0, 0.0, 1.686120654242449E9, 0.0, 2023-06-07 08:50:54.242
35.0, 31348.232191590334, 21555.73178002021, -3045.0004988909363, -1538.470570858785, 21112.049652582366, -3217.1089311968008, -8405.395854162676, -13283.77584025572, 0.004, -0.006, 0.974, 192.0, 0.0, 0.0, 0.0, 0.0, 0.0, 0.0, 0.0, 0.0, 0.0, 1.686120654246426E9, 0.0, 2023-06-07 08:50:54.246
36.0, 31440.544896190753, 21646.636324719948, -2949.1785704110353, -1427.0471247490793, 21316.434003881695, -3138.0061075694693, -8349.024754646392, -13277.24913087477, 0.004, -0.006, 0.974, 192.0, 0.0, 0.0, 0.0, 0.0, 0.0, 0.0, 0.0, 0.0, 0.0, 1.686120654251426E9, 0.0, 2023-06-07 08:50:54.251
37.0, 31589.96630787448, 21788.234625844318, -2802.5958302731315, -1299.1727947202678, 21238.761691899505, -3041.200702333534, -8322.940268867049, -13381.140039103037, 0.004, -0.006, 0.974, 192.0, 0.0, 0.0, 0.0, 0.0, 0.0, 0.0, 0.0, 0.0, 0.0, 1.686120654255441E9, 0.0, 2023-06-07 08:50:54.255
38.0, 31707.67059417613, 21907.212961579917, -2683.3939770929787, -1179.8815345622938, 21131.249801069476, -2926.178625366524, -8214.154328603068, -13387.778507206263, 0.004, -0.006, 0.974, 192.0, 0.0, 0.0, 0.0, 0.0, 0.0, 0.0, 0.0, 0.0, 0.0, 1.686120654259465E9, 0.0, 2023-06-07 08:50:54.259
39.0, 31772.982391474536, 21979.00676477036, -2615.4670256933005, -1078.7845943909401, 21202.328348437353, -2825.059333450715, -8012.58629710511, -13222.95674359283, 0.004, -0.006, 0.974, 192.0, 0.0, 0.0, 0.0, 0.0, 0.0, 0.0, 0.0, 0.0, 0.0, 1.686120654263421E9, 0.0, 2023-06-07 08:50:54.263
40.0, 31826.090136300343, 22036.11547185367, -2560.168809910871, -1003.3474568542788, 21374.928519121233, -2741.888492332517, -7837.16980661986, -13035.649125057356, 0.004, -0.006, 0.974, 192.0, 0.0, 0.0, 0.0, 0.0, 0.0, 0.0, 0.0, 0.0, 0.0, 1.686120654266416E9, 0.0, 2023-06-07 08:50:54.266
41.0, 31912.881960020302, 22118.481650171478, -2477.132079259405, -951.7819823958854, 21446.319990911485, -2672.6651397544315, -7744.633584574889, -13002.881467685875, 0.004, -0.006, 0.974, 192.0, 0.0, 0.0, 0.0, 0.0, 0.0, 0.0, 0.0, 0.0, 0.0, 1.686120654270443E9, 0.0, 2023-06-07 08:50:54.270
42.0, 32039.236371426152, 22233.749596327496, -2355.046851044518, -876.2330861369475, 21386.014984371064, -2599.7984528301304, -7673.219761040183, -13083.280692491615, 0.004, -0.006, 0.974, 192.0, 0.0, 0.0, 0.0, 0.0, 0.0, 0.0, 0.0, 0.0, 0.0, 1.686120654274444E9, 0.0, 2023-06-07 08:50:54.274
43.0, 32151.50918382516, 22345.821243026407, -2240.9411956001754, -748.6493287860548, 21342.116158260844, -2463.944550030774, -7534.191910528173, -13104.984236357717, 0.004, -0.006, 0.974, 192.0, 0.0, 0.0, 0.0, 0.0, 0.0, 0.0, 0.0, 0.0, 0.0, 1.686120654278418E9, 0.0, 2023-06-07 08:50:54.278
44.0, 32202.672326883356, 22401.655900675763, -2188.1240234522847, -658.3035776977036, 21381.142304079807, -2359.4724964466686, -7349.164169927141, -12981.490848242147, 0.006, -0.01, 0.97, 192.0, 0.0, 48.0, 255.0, 176.0, 30.0, 80.0, 0.0, 0.0, 0.0, 1.686120654283558E9, 0.0, 2023-06-07 08:50:54.283
45.0, 32231.79664990862, 22436.5469737705, -2152.7859154684443, -584.4757657618244, 21426.784566257546, -2320.803978538988, -7195.741795985913, -12825.319209732916, 0.006, -0.01, 0.97, 192.0, 0.0, 0.0, 0.0, 0.0, 0.0, 0.0, 0.0, 0.0, 0.0, 1.686120654287572E9, 0.0, 2023-06-07 08:50:54.287
46.0, 32280.948135965842, 22480.579910347453, -2106.22723176804, -502.10958744401785, 21414.267589362575, -2320.6475163278005, -7170.75254568488, -12789.444659882149, 0.006, -0.01, 0.97, 192.0, 0.0, 0.0, 0.0, 0.0, 0.0, 0.0, 0.0, 0.0, 0.0, 1.68612065429156E9, 0.0, 2023-06-07 08:50:54.291
47.0, 32356.809956647154, 22550.85379491494, -2033.4052483326493, -452.8686944089764, 21328.302780187463, -2334.729115334644, -7243.507473886904, -12869.039221887497, 0.006, -0.01, 0.97, 192.0, 0.0, 0.0, 0.0, 0.0, 0.0, 0.0, 0.0, 0.0, 0.0, 1.686120654294617E9, 0.0, 2023-06-07 08:50:54.294
48.0, 32418.500771343803, 22614.53391486811, -1971.7367853804571, -424.593737673013, 21305.54870433196, -2334.215025212172, -7283.539448206359, -12900.55518156948, 0.006, -0.01, 0.97, 192.0, 0.0, 0.0, 0.0, 0.0, 0.0, 0.0, 0.0, 0.0, 0.0, 1.686120654298568E9, 0.0, 2023-06-07 08:50:54.298
49.0, 32431.12950696105, 22631.94592379879, -1959.3986224411278, -374.27996090411676, 21499.427735737292, -2278.6932919851893, -7218.80879626379, -12793.91500877321, 0.006, -0.01, 0.97, 192.0, 0.0, 0.0, 0.0, 0.0, 0.0, 0.0, 0.0, 0.0, 0.0, 1.686120654302598E9, 0.0, 2023-06-07 08:50:54.302
50.0, 32424.42398362446, 22626.201525473778, -1968.3840237121613, -328.7718091931116, 21793.487285791314, -2248.5854922038907, -7139.124827280621, -12633.273021372917, 0.006, -0.01, 0.97, 192.0, 0.0, 0.0, 0.0, 0.0, 0.0, 0.0, 0.0, 0.0, 0.0, 1.686120654306583E9, 0.0, 2023-06-07 08:50:54.306
51.0, 32461.95256256492, 22660.57850844604, -1929.3355261487397, -305.72716065969, 21932.895115959065, -2253.502875984058, -7138.566033669238, -12589.150677818141, 0.006, -0.01, 0.97, 192.0, 0.0, 0.0, 0.0, 0.0, 0.0, 0.0, 0.0, 0.0, 0.0, 1.686120654311562E9, 0.0, 2023-06-07 08:50:54.311
52.0, 32543.53642982679, 22733.9145820039, -1853.4960572118828, -281.52022141459247, 21868.119760527585, -2258.286149297494, -7197.5969907757035, -12673.41675441465, 0.006, -0.01, 0.97, 192.0, 0.0, 0.0, 0.0, 0.0, 0.0, 0.0, 0.0, 0.0, 0.0, 1.686120654315563E9, 0.0, 2023-06-07 08:50:54.315
53.0, 32591.659735639067, 22786.105905307046, -1802.8693560206123, -241.06356395048667, 21831.08291996514, -2234.0792100523963, -7205.129528657142, -12696.46140294807, 0.006, -0.01, 0.97, 192.0, 0.0, 0.0, 0.0, 0.0, 0.0, 0.0, 0.0, 0.0, 0.0, 1.686120654318585E9, 0.0, 2023-06-07 08:50:54.318
54.0, 32594.565462418257, 22795.158361811446, -1796.6108675731264, -225.12677015385273, 22011.796773886297, -2188.302837407927, -7135.4367894454945, -12587.317834772806, 0.006, -0.008, 0.972, 192.0, 0.0, 48.0, 255.0, 192.0, 30.0, 96.0, 0.0, 0.0, 0.0, 1.686120654322692E9, 0.0, 2023-06-07 08:50:54.322
55.0, 32611.105753315183, 22814.26910332073, -1777.4777743193836, -226.69139226572423, 22292.378222033767, -2142.682926974646, -7034.228090551865, -12430.207422996453, 0.006, -0.008, 0.972, 192.0, 0.0, 0.0, 0.0, 0.0, 0.0, 0.0, 0.0, 0.0, 0.0, 1.68612065432668E9, 0.0, 2023-06-07 08:50:54.326
56.0, 32695.394181656146, 22893.081354270143, -1694.597505879105, -200.9645343976658, 22488.93946277374, -2097.3982927081934, -6998.554706401194, -12348.712962712403, 0.006, -0.008, 0.972, 192.0, 0.0, 0.0, 0.0, 0.0, 0.0, 0.0, 0.0, 0.0, 0.0, 1.686120654330669E9, 0.0, 2023-06-07 08:50:54.330
57.0, 32796.669935783146, 22987.96450948292, -1596.115719809022, -181.40675799927212, 22481.764552803583, -2076.8570395537663, -7047.706192458415, -12380.005404949834, 0.006, -0.008, 0.972, 192.0, 0.0, 0.0, 0.0, 0.0, 0.0, 0.0, 0.0, 0.0, 0.0, 1.686120654334696E9, 0.0, 2023-06-07 08:50:54.334
58.0, 32869.67073317418, 23056.47260623844, -1528.4793410872628, -162.92186533473318, 22559.3251060635, -2035.483960566993, -7041.15713133301, -12395.226942923897, 0.006, -0.008, 0.972, 192.0, 0.0, 0.0, 0.0, 0.0, 0.0, 0.0, 0.0, 0.0, 0.0, 1.686120654338691E9, 0.0, 2023-06-07 08:50:54.338
59.0, 32890.681372962164, 23081.797132706302, -1506.6640384988832, -152.59535939638133, 22882.352516931598, -1971.9155993360996, -6941.46835106234, -12273.991080998312, 0.006, -0.008, 0.972, 192.0, 0.0, 0.0, 0.0, 0.0, 0.0, 0.0, 0.0, 0.0, 0.0, 1.686120654343671E9, 0.0, 2023-06-07 08:50:54.343
60.0, 32891.62014622929, 23085.28400484133, -1501.992523907724, -131.78588530849044, 23324.134746090742, -1922.0488574563096, -6843.075971970078, -12117.707683766805, 0.006, -0.008, 0.972, 192.0, 0.0, 0.0, 0.0, 0.0, 0.0, 0.0, 0.0, 0.0, 0.0, 1.686120654346669E9, 0.0, 2023-06-07 08:50:54.346
61.0, 32936.547152584455, 23130.72510131897, -1455.4338402073195, -96.8724604693008, 23665.647049623378, -1899.5406507898153, -6848.26157668371, -12088.136325852434, 0.006, -0.008, 0.972, 192.0, 0.0, 0.0, 0.0, 0.0, 0.0, 0.0, 0.0, 0.0, 0.0, 1.686120654350708E9, 0.0, 2023-06-07 08:50:54.350
62.0, 33010.59848196489, 23203.54708475436, -1381.6060282714402, -46.11164881129847, 23761.111350191994, -1897.037255410821, -6922.268202575231, -12165.808637834625, 0.006, -0.008, 0.972, 192.0, 0.0, 0.0, 0.0, 0.0, 0.0, 0.0, 0.0, 0.0, 0.0, 1.686120654354697E9, 0.0, 2023-06-07 08:50:54.354
63.0, 33077.58666009744, 23269.03769600841, -1315.8248443394714, 9.477139649050194, 23710.194076322805, -1874.7749179333352, -6939.099066150077, -12199.515068473229, 0.006, -0.008, 0.972, 192.0, 0.0, 0.0, 0.0, 0.0, 0.0, 0.0, 0.0, 0.0, 0.0, 1.686120654358689E9, 0.0, 2023-06-07 08:50:54.358
64.0, 33103.73820111015, 23300.196027779108, -1287.7063498146952, 62.56253273040447, 23763.860614759997, -1818.5155771393272, -6830.335477630553, -12087.19755258531, 0.008, -0.018000000000000002, 0.97, 192.0, 0.0, 64.0, 255.0, 112.0, 30.0, 80.0, 0.0, 0.0, 0.0, 1.686120654362816E9, 0.0, 2023-06-07 08:50:54.362
65.0, 33101.12304700888, 23303.727603403047, -1288.3321986594437, 104.38264660628398, 23946.586125682134, -1778.818878986702, -6714.642848329884, -11926.712027396206, 0.008, -0.018000000000000002, 0.97, 192.0, 0.0, 0.0, 0.0, 0.0, 0.0, 0.0, 0.0, 0.0, 0.0, 1.686120654366811E9, 0.0, 2023-06-07 08:50:54.366
66.0, 33129.73327991167, 23333.589533995335, -1258.0902884114134, 134.4233911542167, 24016.547085827242, -1773.6779777619813, -6701.388263867887, -11882.030890230048, 0.008, -0.018000000000000002, 0.97, 192.0, 0.0, 0.0, 0.0, 0.0, 0.0, 0.0, 0.0, 0.0, 0.0, 1.686120654371815E9, 0.0, 2023-06-07 08:50:54.371
67.0, 33211.5406646181, 23408.53493315398, -1178.652188617252, 179.61861844284755, 23814.867295607008, -1777.8130504862131, -6753.557235426573, -11961.781914446583, 0.008, -0.018000000000000002, 0.97, 192.0, 0.0, 0.0, 0.0, 0.0, 0.0, 0.0, 0.0, 0.0, 0.0, 1.686120654374816E9, 0.0, 2023-06-07 08:50:54.374
68.0, 33269.789310668624, 23462.872023924832, -1122.661068756708, 234.04511619152026, 23577.067086346997, -1764.983149168867, -6768.24233153371, -12031.72052284724, 0.008, -0.018000000000000002, 0.97, 192.0, 0.0, 0.0, 0.0, 0.0, 0.0, 0.0, 0.0, 0.0, 0.0, 1.686120654378832E9, 0.0, 2023-06-07 08:50:54.378
69.0, 33283.155653852904, 23481.423971822736, -1107.7748069494733, 262.85651479441105, 23470.15869261726, -1729.108599318099, -6689.340673606476, -11952.908271897826, 0.008, -0.018000000000000002, 0.97, 192.0, 0.0, 0.0, 0.0, 0.0, 0.0, 0.0, 0.0, 0.0, 0.0, 1.686120654382837E9, 0.0, 2023-06-07 08:50:54.382
70.0, 33282.99919164171, 23485.44728582469, -1102.9915336360377, 252.30649141150613, 23442.86721263733, -1702.599430394105, -6587.930809012749, -11818.618991210342, 0.008, -0.018000000000000002, 0.97, 192.0, 0.0, 0.0, 0.0, 0.0, 0.0, 0.0, 0.0, 0.0, 0.0, 1.686120654386798E9, 0.0, 2023-06-07 08:50:54.386
71.0, 33303.09340990704, 23499.908864487275, -1087.948809617616, 237.21906390417385, 23306.99095809352, -1715.8987183450126, -6581.87348626536, -11795.484935699098, 0.008, -0.018000000000000002, 0.97, 192.0, 0.0, 0.0, 0.0, 0.0, 0.0, 0.0, 0.0, 0.0, 0.0, 1.686120654390808E9, 0.0, 2023-06-07 08:50:54.390
72.0, 33333.067099221604, 23528.921428790265, -1058.8468383368063, 224.83619747593374, 22977.638003544573, -1755.3271955641742, -6674.633225754885, -11905.679035863763, 0.008, -0.018000000000000002, 0.97, 192.0, 0.0, 0.0, 0.0, 0.0, 0.0, 0.0, 0.0, 0.0, 0.0, 1.68612065439484E9, 0.0, 2023-06-07 08:50:54.394
73.0, 33393.03682959519, 23586.253653318126, -997.8042242293626, 238.42605810476044, 22642.518298926152, -1710.0649130421775, -6699.711883033739, -11957.17745508879, 0.008, -0.018000000000000002, 0.97, 192.0, 0.0, 0.0, 0.0, 0.0, 0.0, 0.0, 0.0, 0.0, 0.0, 1.686120654399922E9, 0.0, 2023-06-07 08:50:54.399
74.0, 33408.97362339182, 23601.363432569913, -983.1638316111364, 244.2822151520509, 22492.381631419856, -1643.2779006097198, -6623.671248396784, -11863.188369654223, 0.008, -0.018000000000000002, 0.97, 192.0, 0.0, 0.0, 0.0, 0.0, 0.0, 0.0, 0.0, 0.0, 0.0, 1.686120654402957E9, 0.0, 2023-06-07 08:50:54.402
75.0, 33395.22730055181, 23591.774534198586, -993.2444683604799, 230.31237486748398, 22497.768401833582, -1590.9077633509355, -6536.745314210095, -11732.922402968694, 0.006, -0.014, 0.97, 192.0, 0.0, 48.0, 255.0, 144.0, 30.0, 80.0, 0.0, 0.0, 0.0, 1.686120654405959E9, 0.0, 2023-06-07 08:50:54.405
76.0, 33411.54407400418, 23606.571389028002, -977.1959158415694, 211.31339208047297, 22430.377892300832, -1559.3247484355866, -6542.042677646003, -11703.619265987787, 0.006, -0.014, 0.97, 192.0, 0.0, 0.0, 0.0, 0.0, 0.0, 0.0, 0.0, 0.0, 0.0, 1.686120654410921E9, 0.0, 2023-06-07 08:50:54.410
77.0, 33460.784967039224, 23649.352627915458, -932.3583164642235, 188.33579878041732, 22163.788636182384, -1553.7591640662151, -6631.2708415115885, -11802.86101136935, 0.006, -0.014, 0.97, 192.0, 0.0, 0.0, 0.0, 0.0, 0.0, 0.0, 0.0, 0.0, 0.0, 1.686120654414936E9, 0.0, 2023-06-07 08:50:54.414
78.0, 33513.780953142756, 23700.64988144039, -879.5634960607882, 199.3552087968837, 21876.322850742683, -1516.9458409483245, -6655.231911567678, -11848.480921802631, 0.006, -0.014, 0.97, 192.0, 0.0, 0.0, 0.0, 0.0, 0.0, 0.0, 0.0, 0.0, 0.0, 1.686120654418968E9, 0.0, 2023-06-07 08:50:54.418
79.0, 33523.88394163656, 23718.486573515722, -864.1631441310817, 211.04517114700928, 21753.231794027306, -1453.7798111176267, -6562.293358122512, -11744.545310085454, 0.006, -0.014, 0.97, 192.0, 0.0, 0.0, 0.0, 0.0, 0.0, 0.0, 0.0, 0.0, 0.0, 1.686120654422956E9, 0.0, 2023-06-07 08:50:54.422
80.0, 33514.898540365524, 23711.825753668043, -871.9639029459838, 188.71577843615754, 21755.10934056155, -1416.1618251993448, -6469.533618632987, -11612.424148610133, 0.006, -0.014, 0.97, 192.0, 0.0, 0.0, 0.0, 0.0, 0.0, 0.0, 0.0, 0.0, 0.0, 1.686120654426947E9, 0.0, 2023-06-07 08:50:54.426
81.0, 33538.92666565498, 23731.47293704426, -851.377946302646, 178.38927249780568, 21685.68482228337, -1405.2318221606997, -6473.3110634459335, -11582.763383717942, 0.006, -0.014, 0.97, 192.0, 0.0, 0.0, 0.0, 0.0, 0.0, 0.0, 0.0, 0.0, 0.0, 1.686120654429937E9, 0.0, 2023-06-07 08:50:54.429
82.0, 33585.3288871442, 23772.778960797663, -808.6861143930096, 179.39510099829448, 21424.99642670112, -1421.2803746796103, -6572.038718705025, -11678.719422664575, 0.006, -0.014, 0.97, 192.0, 0.0, 0.0, 0.0, 0.0, 0.0, 0.0, 0.0, 0.0, 0.0, 1.686120654433956E9, 0.0, 2023-06-07 08:50:54.433
83.0, 33624.04210854079, 23810.598112416043, -771.2692941748255, 202.12682510934178, 21144.504385531473, -1399.867403491426, -6605.92396329927, -11726.954487199127, 0.006, -0.014, 0.97, 192.0, 0.0, 0.0, 0.0, 0.0, 0.0, 0.0, 0.0, 0.0, 0.0, 1.686120654439065E9, 0.0, 2023-06-07 08:50:54.439
84.0, 33622.36572770664, 23812.721528139296, -772.5880470976887, 213.54856652600367, 21046.2684686504, -1338.9588998507143, -6507.956267351659, -11629.567936607355, 0.006, -0.014, 0.97, 192.0, 0.0, 0.0, 0.0, 0.0, 0.0, 0.0, 0.0, 0.0, 0.0, 1.686120654443068E9, 0.0, 2023-06-07 08:50:54.443
85.0, 33611.391021179086, 23805.680728635878, -779.5841431121997, 207.3347815674283, 21104.673576912115, -1289.583896348941, -6405.138242857247, -11493.5128681079, 0.008, -0.01, 0.982, 192.0, 0.0, 64.0, 255.0, 176.0, 30.0, 176.0, 0.0, 0.0, 0.0, 1.686120654447075E9, 0.0, 2023-06-07 08:50:54.447
86.0, 33633.3404342342, 23825.305560267636, -757.9253027350072, 204.3843512993278, 21094.32471922931, -1263.8570384808825, -6395.415234019189, -11472.770449253376, 0.008, -0.01, 0.982, 192.0, 0.0, 0.0, 0.0, 0.0, 0.0, 0.0, 0.0, 0.0, 0.0, 1.686120654451058E9, 0.0, 2023-06-07 08:50:54.451
87.0, 33693.868958219166, 23878.502712071266, -703.4317497529686, 220.11997939586396, 20899.171638390024, -1250.2001226186899, -6456.636662082275, -11564.032621864393, 0.008, -0.01, 0.982, 192.0, 0.0, 0.0, 0.0, 0.0, 0.0, 0.0, 0.0, 0.0, 0.0, 1.686120654454082E9, 0.0, 2023-06-07 08:50:54.454
88.0, 33740.919380297586, 23925.597837638597, -655.5319613852455, 273.16066898830763, 20653.637725548473, -1219.488825737098, -6467.097278487358, -11609.518421830944, 0.008, -0.01, 0.982, 192.0, 0.0, 0.0, 0.0, 0.0, 0.0, 0.0, 0.0, 0.0, 0.0, 1.686120654458085E9, 0.0, 2023-06-07 08:50:54.458
89.0, 33750.284761224364, 23941.69109364642, -642.7020600678993, 306.12949205988554, 20568.96931755177, -1173.8912670482716, -6383.747623413518, -11519.932630054072, 0.008, -0.01, 0.982, 192.0, 0.0, 0.0, 0.0, 0.0, 0.0, 0.0, 0.0, 0.0, 0.0, 1.686120654462058E9, 0.0, 2023-06-07 08:50:54.462
90.0, 33733.29743543833, 23926.760128350274, -660.22582772086, 322.8485969124552, 20637.41035907392, -1139.1343044202692, -6290.652607757164, -11391.477154669423, 0.008, -0.01, 0.982, 192.0, 0.0, 0.0, 0.0, 0.0, 0.0, 0.0, 0.0, 0.0, 0.0, 1.686120654466139E9, 0.0, 2023-06-07 08:50:54.466
91.0, 33727.44127839104, 23919.182886979925, -665.679653367955, 333.5103790176367, 20626.212135101814, -1141.3024236324338, -6299.325084605824, -11388.079689512217, 0.008, -0.01, 0.982, 192.0, 0.0, 0.0, 0.0, 0.0, 0.0, 0.0, 0.0, 0.0, 0.0, 1.686120654471046E9, 0.0, 2023-06-07 08:50:54.471
92.0, 33780.59372670576, 23970.36838178258, -609.0179811737515, 355.079812417008, 20434.501222908642, -1148.4549818581322, -6366.536780182932, -11489.26603666139, 0.008, -0.01, 0.982, 192.0, 0.0, 0.0, 0.0, 0.0, 0.0, 0.0, 0.0, 0.0, 0.0, 1.686120654475071E9, 0.0, 2023-06-07 08:50:54.475
93.0, 33823.777296993416, 24008.969844456893, -570.841201644087, 419.94457482630906, 20268.047781949972, -1117.1625396207023, -6384.328768769356, -11544.743066399464, 0.008, -0.01, 0.982, 192.0, 0.0, 0.0, 0.0, 0.0, 0.0, 0.0, 0.0, 0.0, 0.0, 1.686120654479167E9, 0.0, 2023-06-07 08:50:54.479
94.0, 33823.88905571569, 24011.94262646945, -572.1376028224948, 464.42454629237017, 20342.5014427306, -1061.238474993524, -6302.7896049963965, -11469.954129452006, 0.008, -0.01, 0.982, 192.0, 0.0, 0.0, 0.0, 0.0, 0.0, 0.0, 0.0, 0.0, 0.0, 1.686120654482166E9, 0.0, 2023-06-07 08:50:54.482
95.0, 33802.61019499424, 23990.88728319255, -593.4164635439472, 473.1417266299399, 20597.73601266575, -1023.1287506972255, -6207.682932339065, -11354.14974142906, 0.006, -0.01, 0.976, 192.0, 0.0, 48.0, 255.0, 176.0, 30.0, 128.0, 0.0, 0.0, 0.0, 1.686120654486201E9, 0.0, 2023-06-07 08:50:54.486
96.0, 33823.79964873787, 24009.03689969026, -572.3834720115033, 467.5314387716578, 20769.263299615777, -1011.7964162583849, -6203.5925631037435, -11345.432561091491, 0.006, -0.01, 0.976, 192.0, 0.0, 0.0, 0.0, 0.0, 0.0, 0.0, 0.0, 0.0, 0.0, 1.686120654490199E9, 0.0, 2023-06-07 08:50:54.490
97.0, 33858.646018343694, 24045.224373963403, -534.363154693026, 475.8462877090321, 20726.794985150693, -1022.1899774301025, -6281.019005896927, -11452.184492610037, 0.006, -0.01, 0.976, 192.0, 0.0, 0.0, 0.0, 0.0, 0.0, 0.0, 0.0, 0.0, 0.0, 1.686120654494179E9, 0.0, 2023-06-07 08:50:54.494
98.0, 33889.78199836994, 24075.3321737447, -505.7305700457776, 500.7014275433335, 20618.65724547592, -1020.8265210183289, -6321.274497660935, -11515.641095118654, 0.006, -0.01, 0.976, 192.0, 0.0, 0.0, 0.0, 0.0, 0.0, 0.0, 0.0, 0.0, 0.0, 1.686120654498164E9, 0.0, 2023-06-07 08:50:54.498
99.0, 33888.5973559138, 24074.57221443322, -509.2621456697161, 502.6236775664899, 20628.89434443645, -1008.9353929681055, -6266.602130723254, -11452.74328622142, 0.006, -0.01, 0.976, 192.0, 0.0, 0.0, 0.0, 0.0, 0.0, 0.0, 0.0, 0.0, 0.0, 1.686120654503171E9, 0.0, 2023-06-07 08:50:54.503
100.0, 33873.86755631775, 24063.753970116853, -522.4496748983473, 500.589668821057, 20792.53146559375, -989.0870438917929, -6171.361347599191, -11324.913659681519, 0.006, -0.01, 0.976, 192.0, 0.0, 0.0, 0.0, 0.0, 0.0, 0.0, 0.0, 0.0, 0.0, 1.686120654506186E9, 0.0, 2023-06-07 08:50:54.506
101.0, 33878.94140230911, 24064.24570849487, -520.8850527864757, 503.65185781143407, 20899.439859323487, -989.8022997143627, -6157.212693358982, -11301.779604170277, 0.006, -0.01, 0.976, 192.0, 0.0, 0.0, 0.0, 0.0, 0.0, 0.0, 0.0, 0.0, 0.0, 1.686120654510231E9, 0.0, 2023-06-07 08:50:54.510
102.0, 33916.69349869413, 24096.3875170216, -486.01633143619677, 491.60426755002356, 20796.375965640065, -1023.5310820974211, -6243.780999634386, -11416.198184036994, 0.006, -0.01, 0.976, 192.0, 0.0, 0.0, 0.0, 0.0, 0.0, 0.0, 0.0, 0.0, 0.0, 1.686120654514214E9, 0.0, 2023-06-07 08:50:54.514
103.0, 33937.57002801538, 24115.83353469772, -467.79965970512154, 500.2096891653168, 20664.031286720194, -1039.7137450830633, -6301.984942196005, -11498.94434201054, 0.006, -0.01, 0.976, 192.0, 0.0, 0.0, 0.0, 0.0, 0.0, 0.0, 0.0, 0.0, 0.0, 1.686120654518442E9, 0.0, 2023-06-07 08:50:54.518
104.0, 33932.38442330175, 24113.95598816347, -470.8842004399539, 529.0881430015735, 20701.805734849662, -1008.9577447125608, -6247.670203169609, -11436.068884857761, 0.006, -0.01, 0.976, 192.0, 0.0, 0.0, 0.0, 0.0, 0.0, 0.0, 0.0, 0.0, 0.0, 1.686120654522352E9, 0.0, 2023-06-07 08:50:54.522
105.0, 33911.3067282804, 24097.52745598882, -487.0892151700515, 529.4234191684031, 20875.79171368977, -972.6585117171421, -6163.202960873004, -11315.503575265835, 0.006, -0.01, 0.978, 192.0, 0.0, 48.0, 255.0, 176.0, 30.0, 144.0, 0.0, 0.0, 0.0, 1.686120654526333E9, 0.0, 2023-06-07 08:50:54.526
106.0, 33923.06374586389, 24107.42927878252, -476.2486191092276, 522.8743580429981, 20982.878921375148, -958.7557266659411, -6145.5003792644, -11287.876819119076, 0.006, -0.01, 0.978, 192.0, 0.0, 0.0, 0.0, 0.0, 0.0, 0.0, 0.0, 0.0, 0.0, 1.686120654531342E9, 0.0, 2023-06-07 08:50:54.531
107.0, 33954.423243334684, 24132.954970950483, -447.70544143980044, 516.1911864508613, 20880.485580025386, -982.6050379997538, -6219.03761852236, -11394.293474470793, 0.006, -0.01, 0.978, 192.0, 0.0, 0.0, 0.0, 0.0, 0.0, 0.0, 0.0, 0.0, 0.0, 1.686120654534399E9, 0.0, 2023-06-07 08:50:54.534
108.0, 33980.1724529472, 24156.15608169509, -425.6442696624124, 526.5176923892132, 20725.230363038823, -991.1881078705917, -6259.76249691993, -11472.166952153082, 0.006, -0.01, 0.978, 192.0, 0.0, 0.0, 0.0, 0.0, 0.0, 0.0, 0.0, 0.0, 0.0, 1.686120654538299E9, 0.0, 2023-06-07 08:50:54.538
109.0, 33978.49607211305, 24157.40777938459, -427.3206504965604, 533.7373058482774, 20731.19827880839, -952.7878108963741, -6189.332150141257, -11408.822108366741, 0.006, -0.01, 0.978, 192.0, 0.0, 0.0, 0.0, 0.0, 0.0, 0.0, 0.0, 0.0, 0.0, 1.686120654542455E9, 0.0, 2023-06-07 08:50:54.542
110.0, 33955.272609623986, 24137.40296809709, -449.0912495960295, 523.7237243322998, 20880.642042236574, -918.1202552461929, -6098.427605441524, -11293.598865699634, 0.006, -0.01, 0.978, 192.0, 0.0, 0.0, 0.0, 0.0, 0.0, 0.0, 0.0, 0.0, 0.0, 1.686120654546426E9, 0.0, 2023-06-07 08:50:54.546
111.0, 33951.7633857445, 24134.027854684336, -449.82885716305464, 511.87729977098707, 20993.495999991417, -919.8189878247963, -6097.310018218758, -11301.109051836616, 0.006, -0.01, 0.978, 192.0, 0.0, 0.0, 0.0, 0.0, 0.0, 0.0, 0.0, 0.0, 0.0, 1.686120654550479E9, 0.0, 2023-06-07 08:50:54.550
112.0, 33988.8225780514, 24168.65070684561, -412.09911252249634, 513.9560120053306, 20890.0297749078, -929.2737757293911, -6175.6528825346095, -11402.317750730248, 0.006, -0.01, 0.978, 192.0, 0.0, 0.0, 0.0, 0.0, 0.0, 0.0, 0.0, 0.0, 0.0, 1.686120654554436E9, 0.0, 2023-06-07 08:50:54.554
113.0, 34002.63595612478, 24181.301794207313, -400.2973914500942, 529.19990172385, 20769.17389263796, -930.4137146966118, -6225.743141858953, -11451.580995509745, 0.006, -0.01, 0.978, 192.0, 0.0, 0.0, 0.0, 0.0, 0.0, 0.0, 0.0, 0.0, 0.0, 1.686120654559418E9, 0.0, 2023-06-07 08:50:54.559
114.0, 34001.98775553558, 24181.88293956315, -401.9290687953316, 538.0958960170623, 20816.805460072217, -915.5498046338327, -6166.22044637447, -11373.953387016463, 0.006, -0.01, 0.978, 192.0, 0.0, 0.0, 0.0, 0.0, 0.0, 0.0, 0.0, 0.0, 0.0, 1.686120654562447E9, 0.0, 2023-06-07 08:50:54.562
115.0, 33961.93342947167, 24146.991866468416, -439.1000198245072, 523.9025382879422, 21006.97410189797, -908.3078394303132, -6088.928114048018, -11250.41529541198, 0.006, -0.006, 0.97, 192.0, 0.0, 48.0, 255.0, 208.0, 30.0, 80.0, 0.0, 0.0, 0.0, 1.686120654565492E9, 0.0, 2023-06-07 08:50:54.565
116.0, 33948.29886535393, 24133.11143316167, -453.0922118535295, 492.6771512838783, 21110.283864770397, -931.2630809859135, -6098.472308930434, -11234.187928937428, 0.006, -0.006, 0.97, 192.0, 0.0, 0.0, 0.0, 0.0, 0.0, 0.0, 0.0, 0.0, 0.0, 1.686120654570436E9, 0.0, 2023-06-07 08:50:54.570
117.0, 33981.93824075916, 24160.425264886057, -420.70453413778955, 489.12322391548446, 20993.83127615825, -963.3154825348238, -6179.609141303199, -11333.452026063445, 0.006, -0.006, 0.97, 192.0, 0.0, 0.0, 0.0, 0.0, 0.0, 0.0, 0.0, 0.0, 0.0, 1.686120654574457E9, 0.0, 2023-06-07 08:50:54.574
118.0, 34018.595101665866, 24192.79059085734, -386.61812384344626, 503.2718781556938, 20819.35355894012, -959.2251132995026, -6221.18338599007, -11404.508221686867, 0.006, -0.006, 0.97, 192.0, 0.0, 0.0, 0.0, 0.0, 0.0, 0.0, 0.0, 0.0, 0.0, 1.686120654578432E9, 0.0, 2023-06-07 08:50:54.578
119.0, 34004.84877882586, 24183.939300053036, -400.14092923890706, 507.8986892579424, 20793.134962694046, -939.2650055009134, -6169.997891187417, -11340.112845911128, 0.006, -0.006, 0.97, 192.0, 0.0, 0.0, 0.0, 0.0, 0.0, 0.0, 0.0, 0.0, 0.0, 1.686120654582428E9, 0.0, 2023-06-07 08:50:54.582
120.0, 33964.72739752858, 24150.456386858987, -434.11558081097377, 506.17760493488373, 20919.98111247791, -926.1668832501034, -6093.174945494527, -11216.462995584368, 0.006, -0.006, 0.97, 192.0, 0.0, 0.0, 0.0, 0.0, 0.0, 0.0, 0.0, 0.0, 0.0, 1.686120654587463E9, 0.0, 2023-06-07 08:50:54.587
121.0, 33957.53013581397, 24141.828613499238, -442.721002426267, 496.61105830801233, 20979.302642262297, -939.7120403900195, -6104.127300277627, -11208.21520188036, 0.006, -0.006, 0.97, 192.0, 0.0, 0.0, 0.0, 0.0, 0.0, 0.0, 0.0, 0.0, 0.0, 1.68612065459045E9, 0.0, 2023-06-07 08:50:54.590
122.0, 33989.649592596244, 24169.07538999026, -412.81436834506616, 505.3282386455821, 20856.211585546924, -967.6517209591534, -6185.152373928115, -11306.04878736124, 0.006, -0.006, 0.97, 192.0, 0.0, 0.0, 0.0, 0.0, 0.0, 0.0, 0.0, 0.0, 0.0, 1.686120654593559E9, 0.0, 2023-06-07 08:50:54.593
123.0, 34025.97117733612, 24202.93828284005, -374.9952167266866, 542.9685763083191, 20693.647348123475, -963.3825377681898, -6219.015266777906, -11367.761953802343, 0.006, -0.006, 0.97, 192.0, 0.0, 0.0, 0.0, 0.0, 0.0, 0.0, 0.0, 0.0, 0.0, 1.686120654598583E9, 0.0, 2023-06-07 08:50:54.598
124.0, 34024.07127905742, 24202.111268295204, -377.05157721657486, 571.6682161889335, 20691.881560311504, -931.6430606416537, -6139.8453879172075, -11299.589133213656, 0.006, -0.006, 0.97, 192.0, 0.0, 0.0, 0.0, 0.0, 0.0, 0.0, 0.0, 0.0, 0.0, 1.686120654602578E9, 0.0, 2023-06-07 08:50:54.602
125.0, 33987.68263908418, 24170.12592197966, -414.334286968027, 569.7012626768665, 20841.50413769533, -914.2981069443354, -6048.203235650449, -11173.704108441367, 0.008, -0.008, 0.968, 192.0, 0.0, 64.0, 255.0, 192.0, 30.0, 64.0, 0.0, 0.0, 0.0, 1.686120654606583E9, 0.0, 2023-06-07 08:50:54.606
126.0, 33979.323086657896, 24162.5039771204, -421.8221213605549, 553.004509568752, 20918.684711299506, -922.7023628595308, -6047.756200761342, -11151.195901774872, 0.008, -0.008, 0.968, 192.0, 0.0, 0.0, 0.0, 0.0, 0.0, 0.0, 0.0, 0.0, 0.0, 1.686120654610573E9, 0.0, 2023-06-07 08:50:54.610
127.0, 34019.086840043885, 24197.909140337604, -381.79014704109994, 550.4787624453023, 20797.3594423961, -943.4894852029664, -6126.479044732934, -11254.729182091854, 0.008, -0.008, 0.968, 192.0, 0.0, 0.0, 0.0, 0.0, 0.0, 0.0, 0.0, 0.0, 0.0, 1.686120654613557E9, 0.0, 2023-06-07 08:50:54.613
128.0, 34042.578523466414, 24219.88090513717, -359.6619200303459, 558.9500735938637, 20637.343303840556, -949.9714910950055, -6181.4643360929895, -11348.025363448307, 0.008, -0.008, 0.968, 192.0, 0.0, 0.0, 0.0, 0.0, 0.0, 0.0, 0.0, 0.0, 0.0, 1.686120654617601E9, 0.0, 2023-06-07 08:50:54.617
129.0, 34038.59991295337, 24218.60685570322, -362.4558880872593, 571.422346999925, 20652.028399947692, -920.7577610919192, -6117.5383469508115, -11300.639665203056, 0.008, -0.008, 0.968, 192.0, 0.0, 0.0, 0.0, 0.0, 0.0, 0.0, 0.0, 0.0, 0.0, 1.686120654621567E9, 0.0, 2023-06-07 08:50:54.621
130.0, 33997.65151711125, 24181.659422118595, -403.5830978850243, 568.650730687467, 20847.002666831337, -898.6295340811652, -6031.439427308968, -11192.636035995012, 0.008, -0.008, 0.968, 192.0, 0.0, 0.0, 0.0, 0.0, 0.0, 0.0, 0.0, 0.0, 0.0, 1.686120654625558E9, 0.0, 2023-06-07 08:50:54.625
131.0, 33989.53783387397, 24170.97528826896, -412.38968520041533, 557.9889485822855, 20970.540758435818, -911.9958772654388, -6036.5356250447785, -11180.811963178154, 0.008, -0.008, 0.968, 192.0, 0.0, 0.0, 0.0, 0.0, 0.0, 0.0, 0.0, 0.0, 0.0, 1.686120654630572E9, 0.0, 2023-06-07 08:50:54.630
132.0, 34020.80792436694, 24197.39505021513, -383.9135627643541, 554.0997450470621, 20888.107524884646, -934.4593804430224, -6112.218631770448, -11269.23546424335, 0.008, -0.008, 0.968, 192.0, 0.0, 0.0, 0.0, 0.0, 0.0, 0.0, 0.0, 0.0, 0.0, 1.686120654634681E9, 0.0, 2023-06-07 08:50:54.634
133.0, 34048.658197958255, 24222.876038894185, -358.1643531518404, 562.5934079400788, 20735.042778854702, -940.114371790215, -6159.716088737976, -11344.538491313278, 0.008, -0.008, 0.968, 192.0, 0.0, 0.0, 0.0, 0.0, 0.0, 0.0, 0.0, 0.0, 0.0, 1.686120654638693E9, 0.0, 2023-06-07 08:50:54.638
134.0, 34050.11106134785, 24229.961541886514, -354.8786467169102, 572.5622859671457, 20727.934924117915, -916.7791505788745, -6107.435358457013, -11289.016758086296, 0.008, -0.008, 0.968, 192.0, 0.0, 0.0, 0.0, 0.0, 0.0, 0.0, 0.0, 0.0, 0.0, 1.686120654641691E9, 0.0, 2023-06-07 08:50:54.641
135.0, 34011.889578329276, 24195.562207169798, -393.5918681135021, 561.4311172284029, 20885.04533589427, -895.2320689239584, -6024.398627805546, -11169.993718861786, 0.004, -0.016, 0.974, 192.0, 0.0, 32.0, 255.0, 128.0, 30.0, 112.0, 0.0, 0.0, 0.0, 1.686120654645716E9, 0.0, 2023-06-07 08:50:54.645
136.0, 33995.23752871007, 24179.245433717424, -408.5451851541025, 544.6896606313778, 20991.461991245986, -896.4614148690004, -6018.922450413997, -11135.124997511506, 0.004, -0.016, 0.974, 192.0, 0.0, 0.0, 0.0, 0.0, 0.0, 0.0, 0.0, 0.0, 0.0, 1.686120654649697E9, 0.0, 2023-06-07 08:50:54.649
137.0, 34015.01882255302, 24195.83042810326, -386.1263854654295, 532.843236070065, 20894.61188252114, -929.8549210852291, -6109.335256735713, -11237.875966772554, 0.004, -0.016, 0.974, 192.0, 0.0, 0.0, 0.0, 0.0, 0.0, 0.0, 0.0, 0.0, 0.0, 1.686120654653732E9, 0.0, 2023-06-07 08:50:54.653
138.0, 34052.1897735822, 24229.536858741863, -354.1633908943404, 549.1376577779839, 20744.609325481575, -930.793694352352, -6154.9328154245395, -11316.934086910975, 0.004, -0.016, 0.974, 192.0, 0.0, 0.0, 0.0, 0.0, 0.0, 0.0, 0.0, 0.0, 0.0, 1.686120654658672E9, 0.0, 2023-06-07 08:50:54.658
139.0, 34042.19854381067, 24223.434832505565, -362.56764680953586, 563.4427742293805, 20741.256563813276, -906.8773277851734, -6101.243925242892, -11265.189798496938, 0.004, -0.016, 0.974, 192.0, 0.0, 0.0, 0.0, 0.0, 0.0, 0.0, 0.0, 0.0, 0.0, 1.686120654662742E9, 0.0, 2023-06-07 08:50:54.662
140.0, 34015.19763650866, 24202.066564806293, -385.4111296428597, 576.7644139247434, 20898.814010478738, -882.3574641177016, -6014.385046289569, -11139.081256280097, 0.004, -0.016, 0.974, 192.0, 0.0, 0.0, 0.0, 0.0, 0.0, 0.0, 0.0, 0.0, 0.0, 1.686120654666812E9, 0.0, 2023-06-07 08:50:54.666
141.0, 34017.79043886548, 24200.971329327982, -384.6958738202899, 581.9947221272853, 20991.931377879548, -883.2068304070033, -6008.573592731189, -11111.588610600069, 0.004, -0.016, 0.974, 192.0, 0.0, 0.0, 0.0, 0.0, 0.0, 0.0, 0.0, 0.0, 0.0, 1.686120654669939E9, 0.0, 2023-06-07 08:50:54.669
142.0, 34042.55617172196, 24217.757489413918, -364.64635904387944, 582.5088122497574, 20883.212492848932, -909.0901504862488, -6093.264352472348, -11220.55336481969, 0.004, -0.016, 0.974, 192.0, 0.0, 0.0, 0.0, 0.0, 0.0, 0.0, 0.0, 0.0, 0.0, 1.686120654673845E9, 0.0, 2023-06-07 08:50:54.673
143.0, 34061.2869335755, 24237.628190234685, -342.0934488884746, 599.6526002469778, 20715.90968560096, -915.8180255672963, -6149.188417099526, -11310.899115908041, 0.004, -0.016, 0.974, 192.0, 0.0, 0.0, 0.0, 0.0, 0.0, 0.0, 0.0, 0.0, 0.0, 1.686120654677823E9, 0.0, 2023-06-07 08:50:54.677
144.0, 34052.16742183774, 24230.095652353248, -354.0963356609745, 608.1015596510839, 20695.502542913266, -900.9541155045171, -6105.535460178311, -11264.966281052386, 0.004, -0.016, 0.974, 192.0, 0.0, 0.0, 0.0, 0.0, 0.0, 0.0, 0.0, 0.0, 0.0, 1.68612065468182E9, 0.0, 2023-06-07 08:50:54.681
145.0, 34030.44152622718, 24214.628245190175, -372.983559725709, 607.7662834842544, 20837.480823693375, -874.8249262362631, -6018.967153902907, -11137.516634168225, 0.006, -0.012, 0.974, 192.0, 0.0, 48.0, 255.0, 160.0, 30.0, 112.0, 0.0, 0.0, 0.0, 1.6861206546858E9, 0.0, 2023-06-07 08:50:54.685
146.0, 34017.142238276276, 24200.479590949966, -384.94174300929825, 597.6632949904556, 20919.511725844353, -878.892943727129, -6019.436540536469, -11110.649837332945, 0.006, -0.012, 0.974, 192.0, 0.0, 0.0, 0.0, 0.0, 0.0, 0.0, 0.0, 0.0, 0.0, 1.686120654690827E9, 0.0, 2023-06-07 08:50:54.690
147.0, 34046.132450834804, 24224.55241972833, -357.6502630293683, 601.7536642257768, 20808.44590764593, -911.9288220320728, -6102.428567699024, -11214.808966494676, 0.006, -0.012, 0.974, 192.0, 0.0, 0.0, 0.0, 0.0, 0.0, 0.0, 0.0, 0.0, 0.0, 1.686120654694807E9, 0.0, 2023-06-07 08:50:54.694
148.0, 34083.191643141705, 24257.923574200104, -323.5191492461144, 628.7769232722429, 20659.35977212903, -914.1639964776035, -6155.31279508028, -11306.115842594605, 0.006, -0.012, 0.974, 192.0, 0.0, 0.0, 0.0, 0.0, 0.0, 0.0, 0.0, 0.0, 0.0, 1.686120654697817E9, 0.0, 2023-06-07 08:50:54.697
149.0, 34081.06822741845, 24258.594126533764, -323.7873701795781, 649.8993217825082, 20657.99631571726, -890.5829060772546, -6104.060245044261, -11259.84773157212, 0.006, -0.012, 0.974, 192.0, 0.0, 0.0, 0.0, 0.0, 0.0, 0.0, 0.0, 0.0, 0.0, 1.686120654701849E9, 0.0, 2023-06-07 08:50:54.701
150.0, 34037.41527049724, 24219.1656493146, -366.2556846446615, 653.0956212396171, 20816.98427402786, -877.6635977820871, -6027.304354584737, -11138.6789248799, 0.006, -0.012, 0.974, 192.0, 0.0, 0.0, 0.0, 0.0, 0.0, 0.0, 0.0, 0.0, 0.0, 1.686120654705847E9, 0.0, 2023-06-07 08:50:54.705
151.0, 34039.87396238732, 24220.104422581724, -365.5404288220917, 663.7797550892539, 20921.322217145233, -876.5907140482324, -6015.435578278969, -11104.10077620754, 0.006, -0.012, 0.974, 192.0, 0.0, 0.0, 0.0, 0.0, 0.0, 0.0, 0.0, 0.0, 0.0, 1.686120654709946E9, 0.0, 2023-06-07 08:50:54.709
152.0, 34079.32479135094, 24256.98480093298, -325.2625853136284, 681.4152814644912, 20826.193192743445, -889.2865048988468, -6076.768765064331, -11195.83233545212, 0.006, -0.012, 0.974, 192.0, 0.0, 0.0, 0.0, 0.0, 0.0, 0.0, 0.0, 0.0, 0.0, 1.686120654713921E9, 0.0, 2023-06-07 08:50:54.713
153.0, 34100.46954160566, 24277.771923276418, -304.6766286702906, 695.0498455822284, 20668.81456003363, -890.2923333993356, -6128.267184289359, -11284.725223150877, 0.006, -0.012, 0.974, 192.0, 0.0, 0.0, 0.0, 0.0, 0.0, 0.0, 0.0, 0.0, 0.0, 1.686120654718962E9, 0.0, 2023-06-07 08:50:54.718
154.0, 34095.08277119193, 24272.13928367368, -312.25387004063964, 698.9837526063625, 20655.537623827175, -881.2398768949363, -6095.20895423996, -11254.058629758196, 0.006, -0.012, 0.974, 192.0, 0.0, 0.0, 0.0, 0.0, 0.0, 0.0, 0.0, 0.0, 0.0, 1.686120654721934E9, 0.0, 2023-06-07 08:50:54.721
