%OpenBCI Raw EEG Data
%Number of channels = 8
%Sample Rate = 250 Hz
%Board = OpenBCI_GUI$BoardCytonSerial
Sample Index, EXG Channel 0, EXG Channel 1, EXG Channel 2, EXG Channel 3, EXG Channel 4, EXG Channel 5, EXG Channel 6, EXG Channel 7, Accel Channel 0, Accel Channel 1, Accel Channel 2, Other, Other, Other, Other, Other, Other, Other, Analog Channel 0, Analog Channel 1, Analog Channel 2, Timestamp, Other, Timestamp (Formatted)
0.0, 0.0, 0.0, 0.0, 0.0, 0.0, 0.0, 0.0, 0.0, 0.002, -0.014, 0.976, 192.0, 0.0, 16.0, 255.0, 144.0, 30.0, 128.0, 0.0, 0.0, 0.0, 1.686054108150511E9, 0.0, 2023-06-06 14:21:48.150
1.0, 187500.0, -187500.02235174447, 187500.0, -11752.770752045006, 20426.70046409374, 7332.02038192992, 1939.19264545353, -2083.2496384679844, 0.002, -0.014, 0.976, 192.0, 0.0, 0.0, 0.0, 0.0, 0.0, 0.0, 0.0, 0.0, 0.0, 1.686054108167658E9, 0.0, 2023-06-06 14:21:48.167
2.0, 187500.0, -187500.02235174447, 187500.0, -11748.188644431668, 20439.41860668881, 7382.691786610101, 2008.6171637317138, -2086.445937925093, 0.002, -0.014, 0.976, 192.0, 0.0, 0.0, 0.0, 0.0, 0.0, 0.0, 0.0, 0.0, 0.0, 1.686054108170589E9, 0.0, 2023-06-06 14:21:48.170
3.0, 187500.0, -187500.02235174447, 187500.0, -11750.110894454825, 20485.999642133673, 7440.739266960534, 2096.571278163347, -2068.9221702721325, 0.002, -0.014, 0.976, 192.0, 0.0, 0.0, 0.0, 0.0, 0.0, 0.0, 0.0, 0.0, 0.0, 1.6860541081747E9, 0.0, 2023-06-06 14:21:48.174
4.0, 187500.0, -187500.02235174447, 187500.0, -11755.587071846376, 20520.846011739497, 7460.766429992489, 2128.3331070343384, -2077.572295376336, 0.002, -0.014, 0.976, 192.0, 0.0, 0.0, 0.0, 0.0, 0.0, 0.0, 0.0, 0.0, 0.0, 1.68605410817862E9, 0.0, 2023-06-06 14:21:48.178
5.0, 187500.0, -187500.02235174447, 187500.0, -11759.90095852625, 20477.72949668521, 7402.964818831065, 2048.0456409508756, -2146.5274270209584, 0.002, -0.014, 0.976, 192.0, 0.0, 0.0, 0.0, 0.0, 0.0, 0.0, 0.0, 0.0, 0.0, 1.686054108181615E9, 0.0, 2023-06-06 14:21:48.181
6.0, 187500.0, -187500.02235174447, 187500.0, -11736.208109403624, 20320.35086397539, 7346.459608848048, 1970.261570246407, -2360.7688976250765, 0.002, -0.014, 0.976, 192.0, 0.0, 0.0, 0.0, 0.0, 0.0, 0.0, 0.0, 0.0, 0.0, 1.686054108185582E9, 0.0, 2023-06-06 14:21:48.185
7.0, 187500.0, -187500.02235174447, 187500.0, -11720.98657142956, 20250.4793108081, 7384.234056977518, 2025.1798063730964, -2422.0350291770733, 0.002, -0.014, 0.976, 192.0, 0.0, 0.0, 0.0, 0.0, 0.0, 0.0, 0.0, 0.0, 0.0, 1.686054108189589E9, 0.0, 2023-06-06 14:21:48.189
8.0, 187500.0, -187500.02235174447, 187500.0, -11733.503548324532, 20347.37412302186, 7450.126999631763, 2109.0211998249533, -2271.1831058482057, 0.004, -0.008, 0.976, 192.0, 0.0, 32.0, 255.0, 192.0, 30.0, 128.0, 0.0, 0.0, 0.0, 1.686054108193592E9, 0.0, 2023-06-06 14:21:48.193
9.0, 187500.0, -187500.02235174447, 187500.0, -11748.27805140949, 20406.159210939313, 7463.3815840937605, 2137.7878949389333, -2202.0044567590307, 0.004, -0.008, 0.976, 192.0, 0.0, 0.0, 0.0, 0.0, 0.0, 0.0, 0.0, 0.0, 0.0, 1.686054108197611E9, 0.0, 2023-06-06 14:21:48.197
10.0, 187500.0, -187500.02235174447, 187500.0, -11764.147789972758, 20360.181672594746, 7391.856001836777, 2057.5004288554705, -2222.545709913458, 0.004, -0.008, 0.976, 192.0, 0.0, 0.0, 0.0, 0.0, 0.0, 0.0, 0.0, 0.0, 0.0, 1.686054108202745E9, 0.0, 2023-06-06 14:21:48.202
11.0, 187500.0, -187500.02235174447, 187500.0, -11753.888339267773, 20293.796991562485, 7342.905681479655, 1981.683311663069, -2247.602015447857, 0.004, -0.008, 0.976, 192.0, 0.0, 0.0, 0.0, 0.0, 0.0, 0.0, 0.0, 0.0, 0.0, 1.686054108206754E9, 0.0, 2023-06-06 14:21:48.206
12.0, 187500.0, -187500.02235174447, 187500.0, -11736.789254759462, 20329.157451290783, 7384.591684888803, 2034.7910564888784, -2189.3310176528717, 0.004, -0.008, 0.976, 192.0, 0.0, 0.0, 0.0, 0.0, 0.0, 0.0, 0.0, 0.0, 0.0, 1.68605410820974E9, 0.0, 2023-06-06 14:21:48.209
13.0, 187500.0, -187500.02235174447, 187500.0, -11738.108007682325, 20480.679926953308, 7450.149351376218, 2124.6227174547575, -1957.2528549734182, 0.004, -0.008, 0.976, 192.0, 0.0, 0.0, 0.0, 0.0, 0.0, 0.0, 0.0, 0.0, 0.0, 1.686054108213712E9, 0.0, 2023-06-06 14:21:48.213
14.0, 187500.0, -187500.02235174447, 187500.0, -11750.535577599476, 20592.282187018656, 7470.578845808369, 2154.9093311916986, -1844.9576908299555, 0.004, -0.008, 0.976, 192.0, 0.0, 0.0, 0.0, 0.0, 0.0, 0.0, 0.0, 0.0, 0.0, 1.686054108217747E9, 0.0, 2023-06-06 14:21:48.217
15.0, 187500.0, -187500.02235174447, 187500.0, -11758.559853858931, 20537.386302636423, 7409.178603789641, 2082.2438099674955, -2003.0739311067978, 0.004, -0.008, 0.976, 192.0, 0.0, 0.0, 0.0, 0.0, 0.0, 0.0, 0.0, 0.0, 0.0, 1.686054108221744E9, 0.0, 2023-06-06 14:21:48.221
16.0, 187500.0, -187500.02235174447, 187500.0, -11749.060362465425, 20450.99681031666, 7349.633556560702, 1998.8718031492, -2107.0095428239756, 0.004, -0.008, 0.976, 192.0, 0.0, 0.0, 0.0, 0.0, 0.0, 0.0, 0.0, 0.0, 0.0, 1.686054108225726E9, 0.0, 2023-06-06 14:21:48.225
17.0, 187500.0, -187500.02235174447, 187500.0, -11727.647391277242, 20445.028894547093, 7384.4352226776155, 2038.54614955737, -2103.187394522118, 0.004, -0.008, 0.976, 192.0, 0.0, 0.0, 0.0, 0.0, 0.0, 0.0, 0.0, 0.0, 0.0, 1.686054108229713E9, 0.0, 2023-06-06 14:21:48.229
18.0, 187500.0, -187500.02235174447, 187500.0, -11725.278106364978, 20505.736232487707, 7452.853912455311, 2131.7752756804557, -2066.061146981853, -0.002, -0.01, 0.97, 192.0, 255.0, 240.0, 255.0, 176.0, 30.0, 80.0, 0.0, 0.0, 0.0, 1.686054108234726E9, 0.0, 2023-06-06 14:21:48.234
19.0, 187500.0, -187500.02235174447, 187500.0, -11750.46852236611, 20543.331866661534, 7469.081278929863, 2164.0511946739193, -2072.252580195973, -0.002, -0.01, 0.97, 192.0, 0.0, 0.0, 0.0, 0.0, 0.0, 0.0, 0.0, 0.0, 0.0, 1.686054108237727E9, 0.0, 2023-06-06 14:21:48.237
20.0, 187500.0, -187500.02235174447, 187500.0, -11755.609423590831, 20429.248562961646, 7400.8637548522665, 2084.255466968473, -2300.7768155070326, -0.002, -0.01, 0.97, 192.0, 0.0, 0.0, 0.0, 0.0, 0.0, 0.0, 0.0, 0.0, 0.0, 1.686054108241713E9, 0.0, 2023-06-06 14:21:48.241
21.0, 187500.0, -187500.02235174447, 187500.0, -11740.790217016962, 20278.262529166048, 7345.096152436275, 2006.3372857972727, -2439.491741596668, -0.002, -0.01, 0.97, 192.0, 0.0, 0.0, 0.0, 0.0, 0.0, 0.0, 0.0, 0.0, 0.0, 1.686054108245845E9, 0.0, 2023-06-06 14:21:48.245
22.0, 187500.0, -187500.02235174447, 187500.0, -11726.753321499029, 20317.422785451745, 7390.470193680549, 2062.641330080191, -2288.148079889784, -0.002, -0.01, 0.97, 192.0, 0.0, 0.0, 0.0, 0.0, 0.0, 0.0, 0.0, 0.0, 0.0, 1.686054108249873E9, 0.0, 2023-06-06 14:21:48.249
23.0, 187500.0, -187500.02235174447, 187500.0, -11739.22559490509, 20408.059109218015, 7453.703278744612, 2151.154238123207, -2182.759604783011, -0.002, -0.01, 0.97, 192.0, 0.0, 0.0, 0.0, 0.0, 0.0, 0.0, 0.0, 0.0, 0.0, 1.686054108253865E9, 0.0, 2023-06-06 14:21:48.253
24.0, 187500.0, -187500.02235174447, 187500.0, -11741.684286795175, 20444.4253974468, 7467.091973673341, 2172.2989883779273, -2142.392354296727, -0.002, -0.01, 0.97, 192.0, 0.0, 0.0, 0.0, 0.0, 0.0, 0.0, 0.0, 0.0, 0.0, 1.686054108258858E9, 0.0, 2023-06-06 14:21:48.258
25.0, 187500.0, -187500.02235174447, 187500.0, -11747.763961287017, 20406.38272838387, 7400.5731821743475, 2097.2641822414616, -2171.9190087221873, -0.002, -0.01, 0.97, 192.0, 0.0, 0.0, 0.0, 0.0, 0.0, 0.0, 0.0, 0.0, 0.0, 1.686054108262828E9, 0.0, 2023-06-06 14:21:48.262
26.0, 187500.0, -187500.02235174447, 187500.0, -11734.71054252512, 20353.78907368053, 7354.394478129683, 2029.6948587530685, -2190.873288020288, -0.002, -0.01, 0.97, 192.0, 0.0, 0.0, 0.0, 0.0, 0.0, 0.0, 0.0, 0.0, 0.0, 1.686054108265869E9, 0.0, 2023-06-06 14:21:48.265
27.0, 187500.0, -187500.02235174447, 187500.0, -11728.429702333176, 20455.48951095218, 7400.506126940982, 2079.9415802885987, -1977.5705906832923, -0.002, -0.01, 0.97, 192.0, 0.0, 0.0, 0.0, 0.0, 0.0, 0.0, 0.0, 0.0, 0.0, 1.686054108268863E9, 0.0, 2023-06-06 14:21:48.268
28.0, 187500.0, -187500.02235174447, 187500.0, -11733.257679135524, 20589.868198617485, 7459.358270091805, 2149.544912522425, -1845.1141530411428, -0.002, -0.01, 0.97, 192.0, 0.0, 0.0, 255.0, 160.0, 30.0, 80.0, 0.0, 0.0, 0.0, 1.686054108273842E9, 0.0, 2023-06-06 14:21:48.273
29.0, 187500.0, -187500.02235174447, 187500.0, -11742.51130134002, 20600.574684211577, 7469.684776030157, 2175.2047151571173, -1943.104200733209, -0.002, -0.01, 0.97, 192.0, 0.0, 0.0, 0.0, 0.0, 0.0, 0.0, 0.0, 0.0, 0.0, 1.686054108278972E9, 0.0, 2023-06-06 14:21:48.278
30.0, 187500.0, -187500.02235174447, 187500.0, -11761.152656215747, 20553.34544817751, 7407.6810369111345, 2103.5226706889475, -2046.6821845391019, -0.002, -0.01, 0.97, 192.0, 0.0, 0.0, 0.0, 0.0, 0.0, 0.0, 0.0, 0.0, 0.0, 1.686054108282974E9, 0.0, 2023-06-06 14:21:48.282
31.0, 187500.0, -187500.02235174447, 187500.0, -11740.23142340558, 20473.4826652387, 7357.45666712006, 2022.3634865717277, -2118.543042962914, -0.002, -0.01, 0.97, 192.0, 0.0, 0.0, 0.0, 0.0, 0.0, 0.0, 0.0, 0.0, 0.0, 1.686054108285995E9, 0.0, 2023-06-06 14:21:48.285
32.0, 187500.0, -187500.02235174447, 187500.0, -11708.447242790133, 20469.638165192388, 7394.202935004585, 2062.1495917021743, -2097.867679341755, -0.002, -0.01, 0.97, 192.0, 0.0, 0.0, 0.0, 0.0, 0.0, 0.0, 0.0, 0.0, 0.0, 1.686054108289977E9, 0.0, 2023-06-06 14:21:48.289
33.0, 187500.0, -187500.02235174447, 187500.0, -11711.4647282916, 20526.29983738659, 7457.503075302015, 2148.7849532109444, -2061.702556813068, -0.002, -0.01, 0.97, 192.0, 0.0, 0.0, 0.0, 0.0, 0.0, 0.0, 0.0, 0.0, 0.0, 1.686054108292987E9, 0.0, 2023-06-06 14:21:48.292
34.0, 187500.0, -187500.02235174447, 187500.0, -11729.234365133569, 20475.896653639873, 7467.00256669552, 2172.723671522578, -2231.508759440036, -0.002, -0.01, 0.97, 192.0, 0.0, 0.0, 0.0, 0.0, 0.0, 0.0, 0.0, 0.0, 0.0, 1.686054108298012E9, 0.0, 2023-06-06 14:21:48.298
35.0, 187500.0, -187500.02235174447, 187500.0, -11746.221690919601, 20352.202099824204, 7405.691731654612, 2106.0484178123975, -2376.7727466550764, -0.002, -0.01, 0.97, 192.0, 0.0, 0.0, 0.0, 0.0, 0.0, 0.0, 0.0, 0.0, 0.0, 1.686054108301986E9, 0.0, 2023-06-06 14:21:48.301
36.0, 187500.0, -187500.02235174447, 187500.0, -11745.417028119211, 20307.96799754715, 7357.50137060897, 2034.8804634666997, -2311.103321445384, -0.002, -0.01, 0.97, 192.0, 0.0, 0.0, 0.0, 0.0, 0.0, 0.0, 0.0, 0.0, 0.0, 1.686054108305976E9, 0.0, 2023-06-06 14:21:48.305
37.0, 187500.0, -187500.02235174447, 187500.0, -11733.66001053572, 20325.625875666843, 7382.468269165549, 2062.8871992691993, -2236.3814397312926, -0.002, -0.01, 0.97, 192.0, 0.0, 0.0, 0.0, 0.0, 0.0, 0.0, 0.0, 0.0, 0.0, 1.686054108309975E9, 0.0, 2023-06-06 14:21:48.309
38.0, 187500.0, -187500.02235174447, 187500.0, -11724.026408675481, 20389.060126431006, 7441.700391972112, 2134.3904297817267, -2166.2640173749946, -0.002, -0.006, 0.964, 192.0, 255.0, 240.0, 255.0, 208.0, 30.0, 32.0, 0.0, 0.0, 0.0, 1.686054108313976E9, 0.0, 2023-06-06 14:21:48.313
39.0, 187500.0, -187500.02235174447, 187500.0, -11717.387940572256, 20424.264123948113, 7464.7897439944445, 2164.207656885106, -2128.1766448231515, -0.002, -0.006, 0.964, 192.0, 0.0, 0.0, 0.0, 0.0, 0.0, 0.0, 0.0, 0.0, 0.0, 1.686054108317982E9, 0.0, 2023-06-06 14:21:48.317
40.0, 187500.0, -187500.02235174447, 187500.0, -11740.454940850132, 20399.453687602723, 7410.899688112699, 2103.7238363890456, -2147.6897177326346, -0.002, -0.006, 0.964, 192.0, 0.0, 0.0, 0.0, 0.0, 0.0, 0.0, 0.0, 0.0, 0.0, 1.686054108321089E9, 0.0, 2023-06-06 14:21:48.321
41.0, 187500.0, -187500.02235174447, 187500.0, -11746.981650231082, 20430.254391462135, 7365.324481168328, 2042.4800565815042, -2008.6171637317138, -0.002, -0.006, 0.964, 192.0, 0.0, 0.0, 0.0, 0.0, 0.0, 0.0, 0.0, 0.0, 0.0, 1.686054108325092E9, 0.0, 2023-06-06 14:21:48.325
42.0, 187500.0, -187500.02235174447, 187500.0, -11735.805778003429, 20510.1395261454, 7388.614998890758, 2063.893027769688, -1896.1431856326087, -0.002, -0.006, 0.964, 192.0, 0.0, 0.0, 0.0, 0.0, 0.0, 0.0, 0.0, 0.0, 0.0, 1.686054108330084E9, 0.0, 2023-06-06 14:21:48.330
43.0, 187500.0, -187500.02235174447, 187500.0, -11728.429702333176, 20531.619552566954, 7436.8500634253105, 2120.197072052607, -1976.9223900940885, -0.002, -0.006, 0.964, 192.0, 0.0, 0.0, 0.0, 0.0, 0.0, 0.0, 0.0, 0.0, 0.0, 1.686054108334083E9, 0.0, 2023-06-06 14:21:48.334
44.0, 187500.0, -187500.02235174447, 187500.0, -11721.634772018764, 20541.141395704915, 7454.306775844905, 2144.1357903642406, -2021.6258790047025, -0.002, -0.006, 0.964, 192.0, 0.0, 0.0, 0.0, 0.0, 0.0, 0.0, 0.0, 0.0, 0.0, 1.686054108338111E9, 0.0, 2023-06-06 14:21:48.338
45.0, 187500.0, -187500.02235174447, 187500.0, -11737.437455348667, 20509.983063934214, 7407.926906100143, 2091.6985978720904, -2079.4721936550372, -0.002, -0.006, 0.964, 192.0, 0.0, 0.0, 0.0, 0.0, 0.0, 0.0, 0.0, 0.0, 0.0, 1.686054108342103E9, 0.0, 2023-06-06 14:21:48.342
46.0, 187500.0, -187500.02235174447, 187500.0, -11730.821338989896, 20452.18145277279, 7367.582007358314, 2031.2147773760294, -2132.3340692918387, -0.002, -0.006, 0.964, 192.0, 0.0, 0.0, 0.0, 0.0, 0.0, 0.0, 0.0, 0.0, 0.0, 1.68605410834508E9, 0.0, 2023-06-06 14:21:48.345
47.0, 187500.0, -187500.02235174447, 187500.0, -11718.84080396185, 20444.76067361363, 7394.180583260129, 2056.3381381437944, -2130.8588541577883, -0.002, -0.006, 0.964, 192.0, 0.0, 0.0, 0.0, 0.0, 0.0, 0.0, 0.0, 0.0, 0.0, 1.686054108349082E9, 0.0, 2023-06-06 14:21:48.349
48.0, 187500.0, -187500.02235174447, 187500.0, -11714.303399837423, 20417.89387677835, 7442.527406516959, 2121.4711214865592, -2267.83034417991, -0.002, -0.01, 0.966, 192.0, 255.0, 240.0, 255.0, 176.0, 30.0, 48.0, 0.0, 0.0, 0.0, 1.686054108353098E9, 0.0, 2023-06-06 14:21:48.353
49.0, 187500.0, -187500.02235174447, 187500.0, -11720.897164451739, 20365.63549824184, 7456.854874712811, 2146.706240976601, -2353.0351940435403, -0.002, -0.01, 0.966, 192.0, 0.0, 0.0, 0.0, 0.0, 0.0, 0.0, 0.0, 0.0, 0.0, 1.68605410835724E9, 0.0, 2023-06-06 14:21:48.357
50.0, 187500.0, -187500.02235174447, 187500.0, -11743.628888562786, 20354.236108569636, 7406.94342934411, 2090.5363071604143, -2278.246257096083, -0.002, -0.01, 0.966, 192.0, 0.0, 0.0, 0.0, 0.0, 0.0, 0.0, 0.0, 0.0, 0.0, 1.686054108362236E9, 0.0, 2023-06-06 14:21:48.362
51.0, 187500.0, -187500.02235174447, 187500.0, -11748.434513620678, 20323.345997732402, 7365.190370701596, 2033.0923239102751, -2253.5922829618794, -0.002, -0.01, 0.966, 192.0, 0.0, 0.0, 0.0, 0.0, 0.0, 0.0, 0.0, 0.0, 0.0, 1.686054108366234E9, 0.0, 2023-06-06 14:21:48.366
52.0, 187500.0, -187500.02235174447, 187500.0, -11741.840749006362, 20338.098149072906, 7394.627618149236, 2061.8143155353446, -2200.6857038361672, -0.002, -0.01, 0.966, 192.0, 0.0, 0.0, 0.0, 0.0, 0.0, 0.0, 0.0, 0.0, 0.0, 1.68605410837022E9, 0.0, 2023-06-06 14:21:48.370
53.0, 187500.0, -187500.02235174447, 187500.0, -11735.381094858778, 20393.17284741078, 7449.367040320282, 2126.187339566629, -2148.4720287885702, -0.002, -0.01, 0.966, 192.0, 0.0, 0.0, 0.0, 0.0, 0.0, 0.0, 0.0, 0.0, 0.0, 1.686054108373207E9, 0.0, 2023-06-06 14:21:48.373
54.0, 187500.0, -187500.02235174447, 187500.0, -11730.17313840069, 20428.15332748334, 7464.387412594249, 2150.483685789548, -2118.900670874199, -0.002, -0.01, 0.966, 192.0, 0.0, 0.0, 0.0, 0.0, 0.0, 0.0, 0.0, 0.0, 0.0, 1.686054108377223E9, 0.0, 2023-06-06 14:21:48.377
55.0, 187500.0, -187500.02235174447, 187500.0, -11747.316926397913, 20478.7353251857, 7419.169833561163, 2094.1125862732633, -1978.5093639504153, -0.002, -0.01, 0.966, 192.0, 0.0, 0.0, 0.0, 0.0, 0.0, 0.0, 0.0, 0.0, 0.0, 1.686054108381222E9, 0.0, 2023-06-06 14:21:48.381
56.0, 187500.0, -187500.02235174447, 187500.0, -11747.182815931179, 20508.463145311256, 7379.473135408537, 2031.192425631574, -1914.9857062084327, -0.002, -0.01, 0.966, 192.0, 0.0, 0.0, 0.0, 0.0, 0.0, 0.0, 0.0, 0.0, 0.0, 1.686054108385338E9, 0.0, 2023-06-06 14:21:48.385
57.0, 187500.0, -187500.02235174447, 187500.0, -11733.928231469183, 20491.542874758587, 7403.255391508984, 2057.8804085112106, -2006.0914166082641, -0.002, -0.01, 0.966, 192.0, 0.0, 0.0, 0.0, 0.0, 0.0, 0.0, 0.0, 0.0, 0.0, 1.686054108389352E9, 0.0, 2023-06-06 14:21:48.389
58.0, 187500.0, -187500.02235174447, 187500.0, -11729.279068622478, 20525.741043775208, 7456.854874712811, 2128.355458778794, -2022.8775766942, -0.002, -0.012, 0.966, 192.0, 255.0, 240.0, 255.0, 160.0, 30.0, 48.0, 0.0, 0.0, 0.0, 1.686054108394343E9, 0.0, 2023-06-06 14:21:48.394
59.0, 187500.0, -187500.02235174447, 187500.0, -11738.689153038164, 20536.469881113753, 7465.236778883551, 2151.0424794009305, -2044.7599345159454, -0.002, -0.012, 0.966, 192.0, 0.0, 0.0, 0.0, 0.0, 0.0, 0.0, 0.0, 0.0, 0.0, 1.686054108398707E9, 0.0, 2023-06-06 14:21:48.398
60.0, 187500.0, -187500.02235174447, 187500.0, -11751.362592144322, 20498.82954345102, 7410.452653223593, 2088.636408881713, -2100.8628130987663, -0.002, -0.012, 0.966, 192.0, 0.0, 0.0, 0.0, 0.0, 0.0, 0.0, 0.0, 0.0, 0.0, 1.686054108401345E9, 0.0, 2023-06-06 14:21:48.401
61.0, 187500.0, -187500.02235174447, 187500.0, -11744.724124041097, 20440.46913867821, 7364.184542201107, 2021.6258790047025, -2151.3777555677602, -0.002, -0.012, 0.966, 192.0, 0.0, 0.0, 0.0, 0.0, 0.0, 0.0, 0.0, 0.0, 0.0, 1.686054108405338E9, 0.0, 2023-06-06 14:21:48.405
62.0, 187500.0, -187500.02235174447, 187500.0, -11727.960315699616, 20366.373105808867, 7384.5469813998925, 2045.4081351051493, -2303.011989952563, -0.002, -0.012, 0.966, 192.0, 0.0, 0.0, 0.0, 0.0, 0.0, 0.0, 0.0, 0.0, 0.0, 1.686054108409364E9, 0.0, 2023-06-06 14:21:48.409
63.0, 187500.0, -187500.02235174447, 187500.0, -11718.930210939672, 20333.15841354828, 7437.9676506480755, 2118.23011854054, -2367.8096971284986, -0.002, -0.012, 0.966, 192.0, 0.0, 0.0, 0.0, 0.0, 0.0, 0.0, 0.0, 0.0, 0.0, 1.686054108413402E9, 0.0, 2023-06-06 14:21:48.413
64.0, 187500.0, -187500.02235174447, 187500.0, -11724.495795309043, 20375.13498963535, 7451.535159532447, 2142.794685696922, -2243.1540183012507, -0.002, -0.012, 0.966, 192.0, 0.0, 0.0, 0.0, 0.0, 0.0, 0.0, 0.0, 0.0, 0.0, 1.686054108420642E9, 0.0, 2023-06-06 14:21:48.420
65.0, 187500.0, -187500.02235174447, 187500.0, -11757.554025358442, 20356.940669648728, 7394.314693726861, 2087.675283870135, -2220.310535467927, -0.002, -0.012, 0.966, 192.0, 0.0, 0.0, 0.0, 0.0, 0.0, 0.0, 0.0, 0.0, 0.0, 1.686054108422628E9, 0.0, 2023-06-06 14:21:48.422
66.0, 187500.0, -187500.02235174447, 187500.0, -11761.845560293861, 20314.852334839386, 7355.243844418985, 2028.6666785081243, -2221.763398857522, -0.002, -0.012, 0.966, 192.0, 0.0, 0.0, 0.0, 0.0, 0.0, 0.0, 0.0, 0.0, 0.0, 1.686054108425321E9, 0.0, 2023-06-06 14:21:48.425
67.0, 187500.0, -187500.02235174447, 187500.0, -11742.645411806752, 20330.967942591662, 7380.613074375758, 2050.4596293520485, -2181.0161687154973, -0.002, -0.012, 0.966, 192.0, 0.0, 0.0, 0.0, 0.0, 0.0, 0.0, 0.0, 0.0, 0.0, 1.686054108429346E9, 0.0, 2023-06-06 14:21:48.429
68.0, 187500.0, -187500.02235174447, 187500.0, -11736.74455127055, 20394.357489866914, 7432.759694189989, 2118.5206912184585, -2130.389467524227, -0.002, -0.008, 0.972, 192.0, 255.0, 240.0, 255.0, 192.0, 30.0, 96.0, 0.0, 0.0, 0.0, 1.68605410843335E9, 0.0, 2023-06-06 14:21:48.433
69.0, 187500.0, -187500.02235174447, 187500.0, -11741.416065861711, 20484.18915083279, 7449.747019976023, 2138.6372612282353, -1975.938913338055, -0.002, -0.008, 0.972, 192.0, 0.0, 0.0, 0.0, 0.0, 0.0, 0.0, 0.0, 0.0, 0.0, 1.686054108437364E9, 0.0, 2023-06-06 14:21:48.437
70.0, 187500.0, -187500.02235174447, 187500.0, -11760.683269582185, 20547.221070196756, 7399.992036818509, 2077.7958128208893, -1869.7457754308912, -0.002, -0.008, 0.972, 192.0, 0.0, 0.0, 0.0, 0.0, 0.0, 0.0, 0.0, 0.0, 0.0, 1.686054108441457E9, 0.0, 2023-06-06 14:21:48.441
71.0, 187500.0, -187500.02235174447, 187500.0, -11753.597766589854, 20481.37283103142, 7354.595643829781, 2016.037942890876, -2013.3780853006942, -0.002, -0.008, 0.972, 192.0, 0.0, 0.0, 0.0, 0.0, 0.0, 0.0, 0.0, 0.0, 0.0, 1.686054108445551E9, 0.0, 2023-06-06 14:21:48.445
72.0, 187500.0, -187500.02235174447, 187500.0, -11738.532690826976, 20474.667307694832, 7382.580027887825, 2045.3410798717834, -2049.7443735294787, -0.002, -0.008, 0.972, 192.0, 0.0, 0.0, 0.0, 0.0, 0.0, 0.0, 0.0, 0.0, 0.0, 1.686054108450515E9, 0.0, 2023-06-06 14:21:48.450
73.0, 187500.0, -187500.02235174447, 187500.0, -11731.626001790286, 20523.885848985417, 7437.408857036693, 2119.5935749523132, -2038.970832702021, -0.002, -0.008, 0.972, 192.0, 0.0, 0.0, 0.0, 0.0, 0.0, 0.0, 0.0, 0.0, 0.0, 1.686054108453526E9, 0.0, 2023-06-06 14:21:48.453
74.0, 187500.0, -187500.02235174447, 187500.0, -11738.733856527073, 20541.431968382833, 7450.104647887308, 2144.381659553249, -2047.7327165285012, -0.002, -0.008, 0.972, 192.0, 0.0, 0.0, 0.0, 0.0, 0.0, 0.0, 0.0, 0.0, 0.0, 1.686054108457456E9, 0.0, 2023-06-06 14:21:48.457
75.0, 187500.0, -187500.02235174447, 187500.0, -11757.33050791389, 20501.087069641002, 7394.091176282308, 2080.9921122779983, -2103.4779672000373, -0.002, -0.008, 0.972, 192.0, 0.0, 0.0, 0.0, 0.0, 0.0, 0.0, 0.0, 0.0, 0.0, 1.686054108461487E9, 0.0, 2023-06-06 14:21:48.461
76.0, 187500.0, -187500.02235174447, 187500.0, -11750.446170621655, 20393.4634200887, 7349.991184471987, 2024.0398674058758, -2278.0003879070746, -0.002, -0.008, 0.972, 192.0, 0.0, 0.0, 0.0, 0.0, 0.0, 0.0, 0.0, 0.0, 0.0, 1.686054108465493E9, 0.0, 2023-06-06 14:21:48.465
77.0, 187500.0, -187500.02235174447, 187500.0, -11735.13522566977, 20298.6920235982, 7374.55575162837, 2054.3264811428166, -2395.3470462974365, -0.002, -0.008, 0.972, 192.0, 0.0, 0.0, 0.0, 0.0, 0.0, 0.0, 0.0, 0.0, 0.0, 1.686054108469497E9, 0.0, 2023-06-06 14:21:48.469
78.0, 187500.0, -187500.02235174447, 187500.0, -11729.681400022675, 20370.35171632191, 7432.647935467713, 2134.7927611819223, -2244.048088079463, -0.002, -0.012, 0.976, 192.0, 255.0, 240.0, 255.0, 160.0, 30.0, 128.0, 0.0, 0.0, 0.0, 1.686054108473507E9, 0.0, 2023-06-06 14:21:48.473
79.0, 187500.0, -187500.02235174447, 187500.0, -11733.905879724727, 20421.42545240229, 7451.490456043537, 2169.3038546209164, -2166.576941797369, -0.002, -0.012, 0.976, 192.0, 0.0, 0.0, 0.0, 0.0, 0.0, 0.0, 0.0, 0.0, 0.0, 1.686054108478603E9, 0.0, 2023-06-06 14:21:48.478
80.0, 187500.0, -187500.02235174447, 187500.0, -11752.301365411446, 20407.94735049574, 7405.334103743327, 2112.3292580043385, -2170.3320348658604, -0.002, -0.012, 0.976, 192.0, 0.0, 0.0, 0.0, 0.0, 0.0, 0.0, 0.0, 0.0, 0.0, 1.686054108481586E9, 0.0, 2023-06-06 14:21:48.481
81.0, 187500.0, -187500.02235174447, 187500.0, -11735.805778003429, 20351.06216085698, 7353.701574051568, 2031.1253703982081, -2199.9033927802316, -0.002, -0.012, 0.976, 192.0, 0.0, 0.0, 0.0, 0.0, 0.0, 0.0, 0.0, 0.0, 0.0, 1.686054108484583E9, 0.0, 2023-06-06 14:21:48.484
82.0, 187500.0, -187500.02235174447, 187500.0, -11725.076940664881, 20344.64721019831, 7369.034870747909, 2046.3022048833616, -2177.641055302746, -0.002, -0.012, 0.976, 192.0, 0.0, 0.0, 0.0, 0.0, 0.0, 0.0, 0.0, 0.0, 0.0, 1.686054108489612E9, 0.0, 2023-06-06 14:21:48.489
83.0, 187500.0, -187500.02235174447, 187500.0, -11724.65225752023, 20472.074505338016, 7439.308755315395, 2132.08820010283, -1981.0574628183203, -0.002, -0.012, 0.976, 192.0, 0.0, 0.0, 0.0, 0.0, 0.0, 0.0, 0.0, 0.0, 0.0, 1.68605410849359E9, 0.0, 2023-06-06 14:21:48.493
84.0, 187500.0, -187500.02235174447, 187500.0, -11737.616269304308, 20598.49597197723, 7459.961767192098, 2164.185305140651, -1824.751713842358, -0.002, -0.012, 0.976, 192.0, 0.0, 0.0, 0.0, 0.0, 0.0, 0.0, 0.0, 0.0, 0.0, 1.686054108497604E9, 0.0, 2023-06-06 14:21:48.497
85.0, 187500.0, -187500.02235174447, 187500.0, -11753.865987523317, 20537.96744799226, 7396.03577804992, 2087.295304214395, -1982.197401785541, -0.002, -0.012, 0.976, 192.0, 0.0, 0.0, 0.0, 0.0, 0.0, 0.0, 0.0, 0.0, 0.0, 1.686054108501598E9, 0.0, 2023-06-06 14:21:48.501
86.0, 187500.0, -187500.02235174447, 187500.0, -11736.096350681348, 20443.66543813532, 7344.35854486925, 2000.771701427901, -2091.2068594940733, -0.002, -0.012, 0.976, 192.0, 0.0, 0.0, 0.0, 0.0, 0.0, 0.0, 0.0, 0.0, 0.0, 1.686054108506638E9, 0.0, 2023-06-06 14:21:48.506
87.0, 187500.0, -187500.02235174447, 187500.0, -11727.490929066054, 20431.90842055183, 7367.827876547322, 2026.900890696155, -2101.667475899157, -0.002, -0.012, 0.976, 192.0, 0.0, 0.0, 0.0, 0.0, 0.0, 0.0, 0.0, 0.0, 0.0, 1.686054108509613E9, 0.0, 2023-06-06 14:21:48.509
88.0, 187500.0, -187500.02235174447, 187500.0, -11744.858234507828, 20508.932531944818, 7441.141598360729, 2125.8744151442547, -2066.3293679153167, -0.002, -0.012, 0.972, 192.0, 255.0, 240.0, 255.0, 160.0, 30.0, 96.0, 0.0, 0.0, 0.0, 1.686054108512597E9, 0.0, 2023-06-06 14:21:48.512
89.0, 187500.0, -187500.02235174447, 187500.0, -11757.598728847353, 20552.563137121575, 7465.057964927908, 2167.158087153207, -2065.0329667369087, -0.002, -0.012, 0.972, 192.0, 0.0, 0.0, 0.0, 0.0, 0.0, 0.0, 0.0, 0.0, 0.0, 1.686054108517725E9, 0.0, 2023-06-06 14:21:48.517
90.0, 187500.0, -187500.02235174447, 187500.0, -11763.097257983358, 20466.5312727131, 7409.916211356665, 2106.517804445959, -2253.0334893504964, -0.002, -0.012, 0.972, 192.0, 0.0, 0.0, 0.0, 0.0, 0.0, 0.0, 0.0, 0.0, 0.0, 1.686054108521758E9, 0.0, 2023-06-06 14:21:48.521
91.0, 187500.0, -187500.02235174447, 187500.0, -11754.357725901333, 20310.694910370697, 7359.468324121038, 2029.9630796865322, -2437.793009018065, -0.002, -0.012, 0.972, 192.0, 0.0, 0.0, 0.0, 0.0, 0.0, 0.0, 0.0, 0.0, 0.0, 1.686054108525732E9, 0.0, 2023-06-06 14:21:48.525
92.0, 187500.0, -187500.02235174447, 187500.0, -11751.675516566696, 20325.02237856655, 7388.7938128464, 2055.779344532412, -2307.6164493103565, -0.002, -0.012, 0.972, 192.0, 0.0, 0.0, 0.0, 0.0, 0.0, 0.0, 0.0, 0.0, 0.0, 1.686054108529868E9, 0.0, 2023-06-06 14:21:48.529
93.0, 187500.0, -187500.02235174447, 187500.0, -11744.947641485649, 20402.739394037653, 7450.037592653942, 2139.777200195456, -2200.015151502508, -0.002, -0.012, 0.972, 192.0, 0.0, 0.0, 0.0, 0.0, 0.0, 0.0, 0.0, 0.0, 0.0, 1.686054108533726E9, 0.0, 2023-06-06 14:21:48.533
94.0, 187500.0, -187500.02235174447, 187500.0, -11739.739685027562, 20438.14455725486, 7459.581787536358, 2157.055098659408, -2159.1114591492965, -0.002, -0.012, 0.972, 192.0, 0.0, 0.0, 0.0, 0.0, 0.0, 0.0, 0.0, 0.0, 0.0, 1.68605410853774E9, 0.0, 2023-06-06 14:21:48.537
95.0, 187500.0, -187500.02235174447, 187500.0, -11752.99426948956, 20425.29230419306, 7411.346723001805, 2101.7792346214337, -2171.896656977732, -0.002, -0.012, 0.972, 192.0, 0.0, 0.0, 0.0, 0.0, 0.0, 0.0, 0.0, 0.0, 0.0, 1.686054108540729E9, 0.0, 2023-06-06 14:21:48.540
96.0, 187500.0, -187500.02235174447, 187500.0, -11735.984591959072, 20379.113600148394, 7371.247693448984, 2042.2788908814064, -2187.632285074268, -0.002, -0.012, 0.972, 192.0, 0.0, 0.0, 0.0, 0.0, 0.0, 0.0, 0.0, 0.0, 0.0, 1.686054108544709E9, 0.0, 2023-06-06 14:21:48.544
97.0, 187500.0, -187500.02235174447, 187500.0, -11726.552155798932, 20441.877298578896, 7395.745205372001, 2068.9221702721325, -2017.9154894251217, -0.002, -0.012, 0.972, 192.0, 0.0, 0.0, 0.0, 0.0, 0.0, 0.0, 0.0, 0.0, 0.0, 1.686054108549706E9, 0.0, 2023-06-06 14:21:48.549
98.0, 187500.0, -187500.02235174447, 187500.0, -11726.999190688037, 20591.276358518167, 7456.497246801526, 2142.325299063361, -1842.9683855734331, -0.002, -0.012, 0.972, 192.0, 0.0, 0.0, 0.0, 0.0, 0.0, 0.0, 0.0, 0.0, 0.0, 1.686054108553865E9, 0.0, 2023-06-06 14:21:48.553
99.0, 187500.0, -187500.02235174447, 187500.0, -11738.555042571432, 20598.719489421786, 7468.120153918285, 2160.3631568387937, -1947.7533635799127, 0.002, -0.012, 0.972, 192.0, 0.0, 16.0, 255.0, 160.0, 30.0, 96.0, 0.0, 0.0, 0.0, 1.686054108557879E9, 0.0, 2023-06-06 14:21:48.557
100.0, 187500.0, -187500.02235174447, 187500.0, -11761.309118426934, 20555.133587733937, 7412.196089291107, 2097.733568875023, -2048.9844142179986, 0.002, -0.012, 0.972, 192.0, 0.0, 0.0, 0.0, 0.0, 0.0, 0.0, 0.0, 0.0, 0.0, 1.686054108560845E9, 0.0, 2023-06-06 14:21:48.560
101.0, 187500.0, -187500.02235174447, 187500.0, -11757.062286980425, 20473.10268558296, 7352.718097295535, 2014.9650591570212, -2128.8248454123554, 0.002, -0.012, 0.972, 192.0, 0.0, 0.0, 0.0, 0.0, 0.0, 0.0, 0.0, 0.0, 0.0, 1.686054108564836E9, 0.0, 2023-06-06 14:21:48.564
102.0, 187500.0, -187500.02235174447, 187500.0, -11751.22848167759, 20448.783987615585, 7370.912417282155, 2030.9465564425657, -2130.4341710131375, 0.002, -0.012, 0.972, 192.0, 0.0, 0.0, 0.0, 0.0, 0.0, 0.0, 0.0, 0.0, 0.0, 1.686054108568887E9, 0.0, 2023-06-06 14:21:48.568
103.0, 187500.0, -187500.02235174447, 187500.0, -11747.540443842465, 20512.531162802123, 7438.459389026093, 2119.0347813409307, -2088.8822780707214, 0.002, -0.012, 0.972, 192.0, 0.0, 0.0, 0.0, 0.0, 0.0, 0.0, 0.0, 0.0, 0.0, 1.686054108572867E9, 0.0, 2023-06-06 14:21:48.572
104.0, 187500.0, -187500.02235174447, 187500.0, -11742.84657750685, 20474.86847339493, 7454.396182822727, 2147.577959010358, -2224.378552958793, 0.002, -0.012, 0.972, 192.0, 0.0, 0.0, 0.0, 0.0, 0.0, 0.0, 0.0, 0.0, 0.0, 1.686054108576837E9, 0.0, 2023-06-06 14:21:48.576
105.0, 187500.0, -187500.02235174447, 187500.0, -11761.08560098238, 20353.36439053588, 7400.170850774151, 2090.5586589048694, -2403.8407091904533, 0.002, -0.012, 0.972, 192.0, 0.0, 0.0, 0.0, 0.0, 0.0, 0.0, 0.0, 0.0, 0.0, 1.686054108581838E9, 0.0, 2023-06-06 14:21:48.581
106.0, 187500.0, -187500.02235174447, 187500.0, -11753.687173567674, 20301.888323055307, 7346.191387914585, 2012.3052015668395, -2337.6795456027444, 0.002, -0.012, 0.972, 192.0, 0.0, 0.0, 0.0, 0.0, 0.0, 0.0, 0.0, 0.0, 0.0, 1.686054108585852E9, 0.0, 2023-06-06 14:21:48.585
107.0, 187500.0, -187500.02235174447, 187500.0, -11749.775618287995, 20308.54914290299, 7361.569388099836, 2028.4878645524818, -2256.8779893968094, 0.002, -0.012, 0.972, 192.0, 0.0, 0.0, 0.0, 0.0, 0.0, 0.0, 0.0, 0.0, 0.0, 1.686054108588855E9, 0.0, 2023-06-06 14:21:48.588
108.0, 187500.0, -187500.02235174447, 187500.0, -11742.108969939825, 20399.900722491828, 7442.6615169836905, 2133.608118725791, -2159.5361422939473, 0.002, -0.012, 0.972, 192.0, 0.0, 0.0, 0.0, 0.0, 0.0, 0.0, 0.0, 0.0, 0.0, 1.686054108592978E9, 0.0, 2023-06-06 14:21:48.592
109.0, 187500.0, -187500.02235174447, 187500.0, -11756.36938290231, 20443.933659068785, 7462.554569548914, 2169.147392409729, -2127.416685511671, 0.002, -0.012, 0.972, 192.0, 0.0, 0.0, 255.0, 208.0, 30.0, 112.0, 0.0, 0.0, 0.0, 1.686054108596978E9, 0.0, 2023-06-06 14:21:48.596
110.0, 187500.0, -187500.02235174447, 187500.0, -11775.927159300705, 20421.492507635656, 7406.250525265995, 2103.343856733305, -2157.993871926531, 0.002, -0.012, 0.972, 192.0, 0.0, 0.0, 0.0, 0.0, 0.0, 0.0, 0.0, 0.0, 0.0, 1.686054108600973E9, 0.0, 2023-06-06 14:21:48.600
111.0, 187500.0, -187500.02235174447, 187500.0, -11751.921385755704, 20417.491545378154, 7356.875521764222, 2017.7143237250239, -2052.0689549528306, 0.002, -0.012, 0.972, 192.0, 0.0, 0.0, 0.0, 0.0, 0.0, 0.0, 0.0, 0.0, 0.0, 1.686054108604974E9, 0.0, 2023-06-06 14:21:48.604
112.0, 187500.0, -187500.02235174447, 187500.0, -11748.389810131766, 20498.091935883993, 7371.582969615814, 2027.482036051993, -1895.8079094657792, 0.002, -0.012, 0.972, 192.0, 0.0, 0.0, 0.0, 0.0, 0.0, 0.0, 0.0, 0.0, 0.0, 1.686054108609994E9, 0.0, 2023-06-06 14:21:48.609
113.0, 187500.0, -187500.02235174447, 187500.0, -11751.787275288973, 20555.088884245026, 7435.933641902643, 2116.017295839464, -1958.035166029354, 0.002, -0.012, 0.972, 192.0, 0.0, 0.0, 0.0, 0.0, 0.0, 0.0, 0.0, 0.0, 0.0, 1.68605410861499E9, 0.0, 2023-06-06 14:21:48.614
114.0, 187500.0, -187500.02235174447, 187500.0, -11746.042876963958, 20577.194759511323, 7456.698412501623, 2151.3554038233046, -2003.520965995904, 0.002, -0.012, 0.972, 192.0, 0.0, 0.0, 0.0, 0.0, 0.0, 0.0, 0.0, 0.0, 0.0, 1.686054108617986E9, 0.0, 2023-06-06 14:21:48.617
115.0, 187500.0, -187500.02235174447, 187500.0, -11759.744496315063, 20548.83039579754, 7409.782100889934, 2103.3662084777607, -2065.614112092747, 0.002, -0.012, 0.972, 192.0, 0.0, 0.0, 0.0, 0.0, 0.0, 0.0, 0.0, 0.0, 0.0, 1.686054108620991E9, 0.0, 2023-06-06 14:21:48.620
116.0, 187500.0, -187500.02235174447, 187500.0, -11752.636641578274, 20476.500150740165, 7357.009632230954, 2029.4042860751495, -2129.2048250680955, 0.002, -0.012, 0.972, 192.0, 0.0, 0.0, 0.0, 0.0, 0.0, 0.0, 0.0, 0.0, 0.0, 1.686054108625969E9, 0.0, 2023-06-06 14:21:48.625
117.0, 187500.0, -187500.02235174447, 187500.0, -11742.533653084476, 20454.48368245169, 7370.666548093146, 2041.898911225666, -2131.4623512580815, 0.002, -0.012, 0.972, 192.0, 0.0, 0.0, 0.0, 0.0, 0.0, 0.0, 0.0, 0.0, 0.0, 1.686054108628977E9, 0.0, 2023-06-06 14:21:48.628
118.0, 187500.0, -187500.02235174447, 187500.0, -11745.595842074854, 20448.4263597043, 7428.892842399221, 2125.226214555051, -2234.7721141305105, 0.002, -0.012, 0.972, 192.0, 0.0, 0.0, 0.0, 0.0, 0.0, 0.0, 0.0, 0.0, 0.0, 1.686054108633138E9, 0.0, 2023-06-06 14:21:48.633
119.0, 187500.0, -187500.02235174447, 187500.0, -11756.19056894667, 20386.489675818644, 7442.594461750325, 2157.3009678484163, -2361.171229025272, -0.004, -0.008, 0.978, 192.0, 255.0, 224.0, 255.0, 192.0, 30.0, 144.0, 0.0, 0.0, 0.0, 1.686054108637102E9, 0.0, 2023-06-06 14:21:48.637
120.0, 187500.0, -187500.02235174447, 187500.0, -11769.691022597674, 20376.230225113657, 7394.046472793398, 2101.354551476783, -2288.4163008232476, -0.004, -0.008, 0.978, 192.0, 0.0, 0.0, 0.0, 0.0, 0.0, 0.0, 0.0, 0.0, 0.0, 1.686054108641118E9, 0.0, 2023-06-06 14:21:48.641
121.0, 187500.0, -187500.02235174447, 187500.0, -11763.276071939, 20324.865916355364, 7340.894024478677, 2023.8834051946885, -2269.1267453583177, -0.004, -0.008, 0.978, 192.0, 0.0, 0.0, 0.0, 0.0, 0.0, 0.0, 0.0, 0.0, 0.0, 1.686054108645129E9, 0.0, 2023-06-06 14:21:48.645
122.0, 187500.0, -187500.02235174447, 187500.0, -11753.195435189657, 20311.79014584901, 7351.332289139305, 2027.2138151185293, -2229.385343716782, -0.004, -0.008, 0.978, 192.0, 0.0, 0.0, 0.0, 0.0, 0.0, 0.0, 0.0, 0.0, 0.0, 1.686054108649098E9, 0.0, 2023-06-06 14:21:48.649
123.0, 187500.0, -187500.02235174447, 187500.0, -11753.597766589854, 20385.930882207263, 7420.309772528383, 2120.4652929860704, -2153.0094329129975, -0.004, -0.008, 0.978, 192.0, 0.0, 0.0, 0.0, 0.0, 0.0, 0.0, 0.0, 0.0, 0.0, 1.686054108654084E9, 0.0, 2023-06-06 14:21:48.654
124.0, 187500.0, -187500.02235174447, 187500.0, -11770.965072031626, 20437.04932177655, 7448.13769437524, 2162.508924306503, -2117.1348830622296, -0.004, -0.008, 0.978, 192.0, 0.0, 0.0, 0.0, 0.0, 0.0, 0.0, 0.0, 0.0, 0.0, 1.6860541086571E9, 0.0, 2023-06-06 14:21:48.657
125.0, 187500.0, -187500.02235174447, 187500.0, -11778.341147701878, 20478.46710425223, 7409.402121234193, 2107.0542463128863, -2008.2148323315184, -0.004, -0.008, 0.978, 192.0, 0.0, 0.0, 0.0, 0.0, 0.0, 0.0, 0.0, 0.0, 0.0, 1.686054108661093E9, 0.0, 2023-06-06 14:21:48.661
126.0, 187500.0, -187500.02235174447, 187500.0, -11757.174045702703, 20505.736232487707, 7361.211760188551, 2031.840626220778, -1909.777749750346, -0.004, -0.008, 0.978, 192.0, 0.0, 0.0, 0.0, 0.0, 0.0, 0.0, 0.0, 0.0, 0.0, 1.686054108665091E9, 0.0, 2023-06-06 14:21:48.665
127.0, 187500.0, -187500.02235174447, 187500.0, -11741.952507728638, 20490.090011368993, 7379.294321452895, 2054.8182195208337, -1995.4743379919933, -0.004, -0.008, 0.978, 192.0, 0.0, 0.0, 0.0, 0.0, 0.0, 0.0, 0.0, 0.0, 0.0, 1.686054108669095E9, 0.0, 2023-06-06 14:21:48.669
128.0, 187500.0, -187500.02235174447, 187500.0, -11734.978763458583, 20555.424160411854, 7452.138656632741, 2150.9754241675646, -2001.7328264394794, -0.004, -0.008, 0.978, 192.0, 0.0, 0.0, 0.0, 0.0, 0.0, 0.0, 0.0, 0.0, 0.0, 1.686054108673236E9, 0.0, 2023-06-06 14:21:48.673
129.0, 187500.0, -187500.02235174447, 187500.0, -11737.817435004406, 20575.02664029916, 7469.416555096693, 2179.3621396258045, -2027.3926290741717, -0.002, -0.01, 0.976, 192.0, 255.0, 240.0, 255.0, 176.0, 30.0, 128.0, 0.0, 0.0, 0.0, 1.686054108677226E9, 0.0, 2023-06-06 14:21:48.677
130.0, 187500.0, -187500.02235174447, 187500.0, -11771.725031343107, 20533.20652642328, 7417.605211449291, 2119.0347813409307, -2092.927943817132, -0.002, -0.01, 0.976, 192.0, 0.0, 0.0, 0.0, 0.0, 0.0, 0.0, 0.0, 0.0, 0.0, 1.686054108682239E9, 0.0, 2023-06-06 14:21:48.682
131.0, 187500.0, -187500.02235174447, 187500.0, -11757.196397447158, 20451.13092078339, 7365.816219546345, 2040.647213536169, -2154.6634620026903, -0.002, -0.01, 0.976, 192.0, 0.0, 0.0, 0.0, 0.0, 0.0, 0.0, 0.0, 0.0, 0.0, 1.686054108685208E9, 0.0, 2023-06-06 14:21:48.685
132.0, 187500.0, -187500.02235174447, 187500.0, -11727.535632554966, 20375.626728013365, 7383.69761511059, 2057.4333736221047, -2282.02370190903, -0.002, -0.01, 0.976, 192.0, 0.0, 0.0, 0.0, 0.0, 0.0, 0.0, 0.0, 0.0, 0.0, 1.686054108689226E9, 0.0, 2023-06-06 14:21:48.689
133.0, 187500.0, -187500.02235174447, 187500.0, -11730.843690734351, 20350.65982945679, 7438.548796003914, 2147.0415171434306, -2368.301435506515, -0.002, -0.01, 0.976, 192.0, 0.0, 0.0, 0.0, 0.0, 0.0, 0.0, 0.0, 0.0, 0.0, 1.686054108693227E9, 0.0, 2023-06-06 14:21:48.693
134.0, 187500.0, -187500.02235174447, 187500.0, -11745.864063008317, 20403.47700160468, 7454.217368867085, 2176.2328954020613, -2248.0043468480526, -0.002, -0.01, 0.976, 192.0, 0.0, 0.0, 0.0, 0.0, 0.0, 0.0, 0.0, 0.0, 0.0, 1.686054108697352E9, 0.0, 2023-06-06 14:21:48.697
135.0, 187500.0, -187500.02235174447, 187500.0, -11765.444191151166, 20392.457591588212, 7406.94342934411, 2118.0736563293526, -2227.284279737983, -0.002, -0.01, 0.976, 192.0, 0.0, 0.0, 0.0, 0.0, 0.0, 0.0, 0.0, 0.0, 0.0, 1.68605410870134E9, 0.0, 2023-06-06 14:21:48.701
136.0, 187500.0, -187500.02235174447, 187500.0, -11755.765885802019, 20339.68512292923, 7364.117486967742, 2047.933882228599, -2230.5029309395472, -0.002, -0.01, 0.976, 192.0, 0.0, 0.0, 0.0, 0.0, 0.0, 0.0, 0.0, 0.0, 0.0, 1.686054108705353E9, 0.0, 2023-06-06 14:21:48.705
137.0, 187500.0, -187500.02235174447, 187500.0, -11737.258641393024, 20332.286695514525, 7377.372071429739, 2058.7968300338785, -2194.2931049219496, -0.002, -0.01, 0.976, 192.0, 0.0, 0.0, 0.0, 0.0, 0.0, 0.0, 0.0, 0.0, 0.0, 1.686054108709351E9, 0.0, 2023-06-06 14:21:48.709
138.0, 187500.0, -187500.02235174447, 187500.0, -11733.99528670255, 20409.534324352066, 7446.930700174654, 2146.572130509869, -2126.477912244548, -0.002, -0.01, 0.976, 192.0, 0.0, 0.0, 0.0, 0.0, 0.0, 0.0, 0.0, 0.0, 0.0, 1.686054108713334E9, 0.0, 2023-06-06 14:21:48.713
139.0, 187500.0, -187500.02235174447, 187500.0, -11734.554080313932, 20525.092843186005, 7478.513715090003, 2186.894677507243, -1954.2130177274964, -0.002, -0.01, 0.976, 192.0, 0.0, 0.0, 255.0, 176.0, 30.0, 128.0, 0.0, 0.0, 0.0, 1.686054108716352E9, 0.0, 2023-06-06 14:21:48.716
140.0, 187500.0, -187500.02235174447, 187500.0, -11755.922348013204, 20596.327852765065, 7427.730551687545, 2125.5838424663357, -1857.362909002651, -0.002, -0.01, 0.976, 192.0, 0.0, 0.0, 0.0, 0.0, 0.0, 0.0, 0.0, 0.0, 0.0, 1.686054108721354E9, 0.0, 2023-06-06 14:21:48.721
141.0, 187500.0, -187500.02235174447, 187500.0, -11746.13228394178, 20503.992796420192, 7368.721946325535, 2037.6520797791577, -2019.3012975813506, -0.002, -0.01, 0.976, 192.0, 0.0, 0.0, 0.0, 0.0, 0.0, 0.0, 0.0, 0.0, 0.0, 1.686054108725346E9, 0.0, 2023-06-06 14:21:48.725
142.0, 187500.0, -187500.02235174447, 187500.0, -11728.429702333176, 20475.114342583936, 7386.089251767308, 2047.7103647840459, -2065.0776702258195, -0.002, -0.01, 0.976, 192.0, 0.0, 0.0, 0.0, 0.0, 0.0, 0.0, 0.0, 0.0, 0.0, 1.686054108729358E9, 0.0, 2023-06-06 14:21:48.729
143.0, 187500.0, -187500.02235174447, 187500.0, -11725.65808602072, 20533.139471189916, 7453.457409555604, 2136.6926594606234, -2045.8775217387108, -0.002, -0.01, 0.976, 192.0, 0.0, 0.0, 0.0, 0.0, 0.0, 0.0, 0.0, 0.0, 0.0, 1.686054108733347E9, 0.0, 2023-06-06 14:21:48.733
144.0, 187500.0, -187500.02235174447, 187500.0, -11737.504510582032, 20554.150110977902, 7474.646863299235, 2173.9083139787094, -2053.4324113646044, -0.002, -0.01, 0.976, 192.0, 0.0, 0.0, 0.0, 0.0, 0.0, 0.0, 0.0, 0.0, 0.0, 1.686054108737377E9, 0.0, 2023-06-06 14:21:48.737
145.0, 187500.0, -187500.02235174447, 187500.0, -11744.23238566308, 20532.044235711604, 7429.451636010604, 2129.026011112453, -2094.805490351378, -0.002, -0.01, 0.976, 192.0, 0.0, 0.0, 0.0, 0.0, 0.0, 0.0, 0.0, 0.0, 0.0, 1.686054108741354E9, 0.0, 2023-06-06 14:21:48.741
146.0, 187500.0, -187500.02235174447, 187500.0, -11728.921440711194, 20402.761745782107, 7372.879370794221, 2056.2934346548836, -2279.8108792079543, -0.002, -0.01, 0.976, 192.0, 0.0, 0.0, 0.0, 0.0, 0.0, 0.0, 0.0, 0.0, 0.0, 1.686054108744348E9, 0.0, 2023-06-06 14:21:48.744
147.0, 187500.0, -187500.02235174447, 187500.0, -11729.435530833665, 20288.700793826676, 7382.311806954362, 2069.190391205596, -2410.2780115935816, -0.002, -0.01, 0.976, 192.0, 0.0, 0.0, 0.0, 0.0, 0.0, 0.0, 0.0, 0.0, 0.0, 1.686054108748463E9, 0.0, 2023-06-06 14:21:48.748
148.0, 187500.0, -187500.02235174447, 187500.0, -11743.56183332942, 20372.184559367248, 7450.082296142852, 2161.1454678947293, -2249.568968959924, -0.002, -0.01, 0.976, 192.0, 0.0, 0.0, 0.0, 0.0, 0.0, 0.0, 0.0, 0.0, 0.0, 1.686054108753498E9, 0.0, 2023-06-06 14:21:48.753
149.0, 187500.0, -187500.02235174447, 187500.0, -11737.66097279322, 20416.03868198856, 7467.315491117894, 2187.4311193741705, -2179.7868227704553, 0.002, -0.012, 0.976, 192.0, 0.0, 16.0, 255.0, 160.0, 30.0, 128.0, 0.0, 0.0, 0.0, 1.686054108757479E9, 0.0, 2023-06-06 14:21:48.757
150.0, 187500.0, -187500.02235174447, 187500.0, -11745.908766497227, 20400.213646914202, 7422.5896504628245, 2131.70822044709, -2179.5856570703577, 0.002, -0.012, 0.976, 192.0, 0.0, 0.0, 0.0, 0.0, 0.0, 0.0, 0.0, 0.0, 0.0, 1.686054108761477E9, 0.0, 2023-06-06 14:21:48.761
151.0, 187500.0, -187500.02235174447, 187500.0, -11745.417028119211, 20343.373160764357, 7365.659757335157, 2048.0679926953308, -2206.161881227718, 0.002, -0.012, 0.976, 192.0, 0.0, 0.0, 0.0, 0.0, 0.0, 0.0, 0.0, 0.0, 0.0, 1.686054108764515E9, 0.0, 2023-06-06 14:21:48.764
152.0, 187500.0, -187500.02235174447, 187500.0, -11742.220728662101, 20331.280867014037, 7373.013481260954, 2048.895007240177, -2187.2970089074383, 0.002, -0.012, 0.976, 192.0, 0.0, 0.0, 0.0, 0.0, 0.0, 0.0, 0.0, 0.0, 0.0, 1.686054108768535E9, 0.0, 2023-06-06 14:21:48.768
153.0, 187500.0, -187500.02235174447, 187500.0, -11757.3752114028, 20470.755752415153, 7446.126037374263, 2139.3301653063495, -1987.1147855657084, 0.002, -0.012, 0.976, 192.0, 0.0, 0.0, 0.0, 0.0, 0.0, 0.0, 0.0, 0.0, 0.0, 1.686054108772471E9, 0.0, 2023-06-06 14:21:48.772
154.0, 187500.0, -187500.02235174447, 187500.0, -11764.907749284239, 20595.970224853783, 7464.901502716721, 2161.5030958060142, -1839.9061965830563, 0.002, -0.012, 0.976, 192.0, 0.0, 0.0, 0.0, 0.0, 0.0, 0.0, 0.0, 0.0, 0.0, 1.686054108776477E9, 0.0, 2023-06-06 14:21:48.776
155.0, 187500.0, -187500.02235174447, 187500.0, -11767.209978963136, 20553.859538299985, 7418.409874249683, 2103.8802986002324, -1980.4092622291164, 0.002, -0.012, 0.976, 192.0, 0.0, 0.0, 0.0, 0.0, 0.0, 0.0, 0.0, 0.0, 0.0, 1.686054108781507E9, 0.0, 2023-06-06 14:21:48.781
156.0, 187500.0, -187500.02235174447, 187500.0, -11752.837807278373, 20471.493359982178, 7362.396402644683, 2027.3032220963505, -2082.9143623011546, 0.002, -0.012, 0.976, 192.0, 0.0, 0.0, 0.0, 0.0, 0.0, 0.0, 0.0, 0.0, 0.0, 1.686054108785475E9, 0.0, 2023-06-06 14:21:48.785
157.0, 187500.0, -187500.02235174447, 187500.0, -11737.817435004406, 20431.640199618363, 7366.754992813468, 2029.2925273528729, -2109.490586458515, 0.002, -0.012, 0.976, 192.0, 0.0, 0.0, 0.0, 0.0, 0.0, 0.0, 0.0, 0.0, 0.0, 1.686054108789613E9, 0.0, 2023-06-06 14:21:48.789
158.0, 187500.0, -187500.02235174447, 187500.0, -11744.65706880773, 20502.003491163672, 7440.515749515981, 2133.585766981336, -2072.5208011294367, 0.002, -0.012, 0.976, 192.0, 0.0, 0.0, 0.0, 0.0, 0.0, 0.0, 0.0, 0.0, 0.0, 1.686054108792596E9, 0.0, 2023-06-06 14:21:48.792
159.0, 187500.0, -187500.02235174447, 187500.0, -11764.28190043949, 20528.087976943014, 7453.077429899863, 2162.0395376729416, -2079.4721936550372, -0.002, -0.008, 0.972, 192.0, 255.0, 240.0, 255.0, 192.0, 30.0, 96.0, 0.0, 0.0, 0.0, 1.686054108796615E9, 0.0, 2023-06-06 14:21:48.796
160.0, 187500.0, -187500.02235174447, 187500.0, -11783.839676837884, 20435.060016520027, 7399.857926351778, 2109.490586458515, -2265.3940040342814, -0.002, -0.008, 0.972, 192.0, 0.0, 0.0, 0.0, 0.0, 0.0, 0.0, 0.0, 0.0, 0.0, 1.686054108800604E9, 0.0, 2023-06-06 14:21:48.800
161.0, 187500.0, -187500.02235174447, 187500.0, -11760.951490515648, 20279.424819877724, 7343.665640791135, 2033.9416901995767, -2447.583073089489, -0.002, -0.008, 0.972, 192.0, 0.0, 0.0, 0.0, 0.0, 0.0, 0.0, 0.0, 0.0, 0.0, 1.686054108804586E9, 0.0, 2023-06-06 14:21:48.804
162.0, 187500.0, -187500.02235174447, 187500.0, -11739.56087107192, 20290.086601982905, 7356.4955421084815, 2051.152533430163, -2318.591155837912, -0.002, -0.008, 0.972, 192.0, 0.0, 0.0, 0.0, 0.0, 0.0, 0.0, 0.0, 0.0, 0.0, 1.686054108808601E9, 0.0, 2023-06-06 14:21:48.808
163.0, 187500.0, -187500.02235174447, 187500.0, -11736.811606503918, 20383.3604315949, 7436.626545980757, 2158.6867760046457, -2194.3154566664048, -0.002, -0.008, 0.972, 192.0, 0.0, 0.0, 0.0, 0.0, 0.0, 0.0, 0.0, 0.0, 0.0, 1.686054108813595E9, 0.0, 2023-06-06 14:21:48.813
164.0, 187500.0, -187500.02235174447, 187500.0, -11734.241155891557, 20429.114452494916, 7466.197903895129, 2196.9753142565864, -2142.9734996525644, -0.002, -0.008, 0.972, 192.0, 0.0, 0.0, 0.0, 0.0, 0.0, 0.0, 0.0, 0.0, 0.0, 1.686054108817596E9, 0.0, 2023-06-06 14:21:48.817
165.0, 187500.0, -187500.02235174447, 187500.0, -11745.908766497227, 20422.3195221805, 7419.862737639277, 2145.9462816651203, -2152.8753224462657, -0.002, -0.008, 0.972, 192.0, 0.0, 0.0, 0.0, 0.0, 0.0, 0.0, 0.0, 0.0, 0.0, 1.686054108820597E9, 0.0, 2023-06-06 14:21:48.820
166.0, 187500.0, -187500.02235174447, 187500.0, -11739.806740260929, 20360.159320850293, 7361.0105944884535, 2053.7229840425234, -2191.0073984870196, -0.002, -0.008, 0.972, 192.0, 0.0, 0.0, 0.0, 0.0, 0.0, 0.0, 0.0, 0.0, 0.0, 1.686054108824627E9, 0.0, 2023-06-06 14:21:48.824
167.0, 187500.0, -187500.02235174447, 187500.0, -11734.151748913735, 20408.32733015148, 7372.968777772043, 2053.857094509255, -2035.9533472005544, -0.002, -0.008, 0.972, 192.0, 0.0, 0.0, 0.0, 0.0, 0.0, 0.0, 0.0, 0.0, 0.0, 1.686054108828602E9, 0.0, 2023-06-06 14:21:48.828
168.0, 187500.0, -187500.02235174447, 187500.0, -11730.217841889602, 20562.956698293292, 7440.538101260437, 2134.3904297817267, -1854.8595136236565, -0.002, -0.008, 0.972, 192.0, 0.0, 0.0, 0.0, 0.0, 0.0, 0.0, 0.0, 0.0, 0.0, 1.68605410883273E9, 0.0, 2023-06-06 14:21:48.832
169.0, 187500.0, -187500.02235174447, 187500.0, -11719.287838850956, 20571.718582119775, 7462.062831170897, 2163.9394359516427, -1948.3345089357508, -0.002, -0.01, 0.97, 192.0, 255.0, 240.0, 255.0, 176.0, 30.0, 80.0, 0.0, 0.0, 0.0, 1.686054108836745E9, 0.0, 2023-06-06 14:21:48.836
170.0, 187500.0, -187500.02235174447, 187500.0, -11737.99624896005, 20546.908145774385, 7427.149406331708, 2118.6548016851907, -2031.1253703982081, -0.002, -0.01, 0.97, 192.0, 0.0, 0.0, 0.0, 0.0, 0.0, 0.0, 0.0, 0.0, 0.0, 1.686054108841718E9, 0.0, 2023-06-06 14:21:48.841
171.0, 187500.0, -187500.02235174447, 187500.0, -11734.911708225216, 20468.341764013978, 7369.88423703721, 2034.455780322049, -2107.4118742241712, -0.002, -0.01, 0.97, 192.0, 0.0, 0.0, 0.0, 0.0, 0.0, 0.0, 0.0, 0.0, 0.0, 1.686054108845709E9, 0.0, 2023-06-06 14:21:48.845
172.0, 187500.0, -187500.02235174447, 187500.0, -11718.483176050566, 20438.05515027704, 7370.018347503942, 2033.0252686769093, -2117.5595662068804, -0.002, -0.01, 0.97, 192.0, 0.0, 0.0, 0.0, 0.0, 0.0, 0.0, 0.0, 0.0, 0.0, 1.686054108848736E9, 0.0, 2023-06-06 14:21:48.848
173.0, 187500.0, -187500.02235174447, 187500.0, -11724.540498797955, 20506.697357499284, 7435.061923868886, 2125.248566299506, -2075.1136034862525, -0.002, -0.01, 0.97, 192.0, 0.0, 0.0, 0.0, 0.0, 0.0, 0.0, 0.0, 0.0, 0.0, 1.686054108852727E9, 0.0, 2023-06-06 14:21:48.852
174.0, 187500.0, -187500.02235174447, 187500.0, -11730.039027933959, 20491.833447436507, 7448.338860075339, 2147.5556072659024, -2170.1755726546735, -0.002, -0.01, 0.97, 192.0, 0.0, 0.0, 0.0, 0.0, 0.0, 0.0, 0.0, 0.0, 0.0, 1.686054108856721E9, 0.0, 2023-06-06 14:21:48.856
175.0, 187500.0, -187500.02235174447, 187500.0, -11748.501568854042, 20358.21471908268, 7400.617885663258, 2095.7219118740454, -2407.439340047758, -0.002, -0.01, 0.97, 192.0, 0.0, 0.0, 0.0, 0.0, 0.0, 0.0, 0.0, 0.0, 0.0, 1.686054108860704E9, 0.0, 2023-06-06 14:21:48.860
176.0, 187500.0, -187500.02235174447, 187500.0, -11746.489911853065, 20302.290654455504, 7348.001879215465, 2022.519948782915, -2355.7397551226327, -0.002, -0.01, 0.97, 192.0, 0.0, 0.0, 0.0, 0.0, 0.0, 0.0, 0.0, 0.0, 0.0, 1.686054108864798E9, 0.0, 2023-06-06 14:21:48.864
177.0, 187500.0, -187500.02235174447, 187500.0, -11723.08763540836, 20303.63175912282, 7363.134010211708, 2030.0748384088085, -2269.506725014058, -0.002, -0.01, 0.97, 192.0, 0.0, 0.0, 0.0, 0.0, 0.0, 0.0, 0.0, 0.0, 0.0, 1.68605410886888E9, 0.0, 2023-06-06 14:21:48.868
178.0, 187500.0, -187500.02235174447, 187500.0, -11727.334466854867, 20389.998899698126, 7435.9112901581875, 2130.3000605464053, -2172.8577819893103, -0.002, -0.01, 0.97, 192.0, 0.0, 0.0, 0.0, 0.0, 0.0, 0.0, 0.0, 0.0, 0.0, 1.686054108873843E9, 0.0, 2023-06-06 14:21:48.873
179.0, 187500.0, -187500.02235174447, 187500.0, -11742.131321684281, 20427.058092005027, 7449.456447298104, 2159.4690870605814, -2140.5595112513915, -0.002, -0.01, 0.97, 192.0, 0.0, 0.0, 255.0, 208.0, 30.0, 96.0, 0.0, 0.0, 0.0, 1.686054108876842E9, 0.0, 2023-06-06 14:21:48.876
180.0, 187500.0, -187500.02235174447, 187500.0, -11768.841656308372, 20411.188353441757, 7401.6907693971125, 2108.4624062135704, -2164.118249907285, -0.002, -0.01, 0.97, 192.0, 0.0, 0.0, 0.0, 0.0, 0.0, 0.0, 0.0, 0.0, 0.0, 1.686054108880853E9, 0.0, 2023-06-06 14:21:48.880
181.0, 187500.0, -187500.02235174447, 187500.0, -11762.158484716236, 20377.303108847515, 7347.733658282002, 2024.6657162506244, -2120.219423797062, -0.002, -0.01, 0.97, 192.0, 0.0, 0.0, 0.0, 0.0, 0.0, 0.0, 0.0, 0.0, 0.0, 1.686054108884863E9, 0.0, 2023-06-06 14:21:48.884
182.0, 187500.0, -187500.02235174447, 187500.0, -11736.699847781641, 20473.259147794146, 7364.363356156749, 2034.4110768331382, -1902.0440461688097, -0.002, -0.01, 0.97, 192.0, 0.0, 0.0, 0.0, 0.0, 0.0, 0.0, 0.0, 0.0, 0.0, 1.686054108888926E9, 0.0, 2023-06-06 14:21:48.888
183.0, 187500.0, -187500.02235174447, 187500.0, -11713.521088781488, 20553.837186555527, 7442.8403309393325, 2135.6868309601346, -1930.453113371505, -0.002, -0.01, 0.97, 192.0, 0.0, 0.0, 0.0, 0.0, 0.0, 0.0, 0.0, 0.0, 0.0, 1.686054108892849E9, 0.0, 2023-06-06 14:21:48.892
184.0, 187500.0, -187500.02235174447, 187500.0, -11718.952562684128, 20561.079151759048, 7461.436982326149, 2162.3748138397714, -1999.385893271672, -0.002, -0.01, 0.97, 192.0, 0.0, 0.0, 0.0, 0.0, 0.0, 0.0, 0.0, 0.0, 0.0, 1.686054108897897E9, 0.0, 2023-06-06 14:21:48.897
185.0, 187500.0, -187500.02235174447, 187500.0, -11739.56087107192, 20534.413520623868, 7420.198013806107, 2121.381714508738, -2068.385728405205, -0.002, -0.01, 0.97, 192.0, 0.0, 0.0, 0.0, 0.0, 0.0, 0.0, 0.0, 0.0, 0.0, 1.686054108900849E9, 0.0, 2023-06-06 14:21:48.900
186.0, 187500.0, -187500.02235174447, 187500.0, -11728.273240121991, 20464.09493256747, 7365.302129423872, 2037.6520797791577, -2137.765543194478, -0.002, -0.01, 0.97, 192.0, 0.0, 0.0, 0.0, 0.0, 0.0, 0.0, 0.0, 0.0, 0.0, 1.686054108903964E9, 0.0, 2023-06-06 14:21:48.903
187.0, 187500.0, -187500.02235174447, 187500.0, -11710.481251535566, 20421.872487291395, 7370.688899837602, 2034.0758006663086, -2138.6596129726904, -0.002, -0.01, 0.97, 192.0, 0.0, 0.0, 0.0, 0.0, 0.0, 0.0, 0.0, 0.0, 0.0, 1.686054108908966E9, 0.0, 2023-06-06 14:21:48.908
188.0, 187500.0, -187500.02235174447, 187500.0, -11741.170196672701, 20463.223214533715, 7448.674136242168, 2149.3660985667825, -2168.9238749651763, -0.002, -0.01, 0.97, 192.0, 0.0, 0.0, 0.0, 0.0, 0.0, 0.0, 0.0, 0.0, 0.0, 1.686054108912957E9, 0.0, 2023-06-06 14:21:48.912
189.0, 187500.0, -187500.02235174447, 187500.0, -11755.877644524295, 20391.98820495465, 7465.393241094737, 2183.743081539045, -2360.7018423917107, -0.004, -0.012, 0.974, 192.0, 255.0, 224.0, 255.0, 160.0, 30.0, 112.0, 0.0, 0.0, 0.0, 1.686054108916986E9, 0.0, 2023-06-06 14:21:48.916
190.0, 187500.0, -187500.02235174447, 187500.0, -11754.581243345887, 20388.724850264174, 7425.964763875576, 2136.580900738347, -2297.8710887278426, -0.004, -0.012, 0.974, 192.0, 0.0, 0.0, 0.0, 0.0, 0.0, 0.0, 0.0, 0.0, 0.0, 1.686054108920959E9, 0.0, 2023-06-06 14:21:48.920
191.0, 187500.0, -187500.02235174447, 187500.0, -11727.781501743973, 20335.01360833807, 7370.130106226219, 2048.1126961842415, -2273.2618180825493, -0.004, -0.012, 0.974, 192.0, 0.0, 0.0, 0.0, 0.0, 0.0, 0.0, 0.0, 0.0, 0.0, 1.686054108924968E9, 0.0, 2023-06-06 14:21:48.924
192.0, 187500.0, -187500.02235174447, 187500.0, -11712.403501558721, 20323.703625643688, 7371.381803915716, 2048.224454906518, -2223.417427947215, -0.004, -0.012, 0.974, 192.0, 0.0, 0.0, 0.0, 0.0, 0.0, 0.0, 0.0, 0.0, 0.0, 1.68605410892899E9, 0.0, 2023-06-06 14:21:48.928
193.0, 187500.0, -187500.02235174447, 187500.0, -11707.776690456474, 20402.538228337555, 7442.750923961512, 2145.543950264925, -2144.739287464534, -0.004, -0.012, 0.974, 192.0, 0.0, 0.0, 0.0, 0.0, 0.0, 0.0, 0.0, 0.0, 0.0, 1.686054108931978E9, 0.0, 2023-06-06 14:21:48.931
194.0, 187500.0, -187500.02235174447, 187500.0, -11715.130414382269, 20429.226211217192, 7458.575959035869, 2176.1434884242403, -2123.6839441876346, -0.004, -0.012, 0.974, 192.0, 0.0, 0.0, 0.0, 0.0, 0.0, 0.0, 0.0, 0.0, 0.0, 1.68605410893596E9, 0.0, 2023-06-06 14:21:48.935
195.0, 187500.0, -187500.02235174447, 187500.0, -11738.555042571432, 20456.785912130585, 7418.566336460869, 2132.3340692918387, -2055.220550921029, -0.004, -0.012, 0.974, 192.0, 0.0, 0.0, 0.0, 0.0, 0.0, 0.0, 0.0, 0.0, 0.0, 1.686054108940975E9, 0.0, 2023-06-06 14:21:48.940
196.0, 187500.0, -187500.02235174447, 187500.0, -11729.770807000496, 20497.510790528155, 7356.36143164175, 2036.3109751118393, -1905.9332497040332, -0.004, -0.012, 0.974, 192.0, 0.0, 0.0, 0.0, 0.0, 0.0, 0.0, 0.0, 0.0, 0.0, 1.686054108945092E9, 0.0, 2023-06-06 14:21:48.945
197.0, 187500.0, -187500.02235174447, 187500.0, -11721.075978407382, 20455.33304874099, 7351.086419950298, 2022.5870040162808, -1994.937896125066, -0.004, -0.012, 0.974, 192.0, 0.0, 0.0, 0.0, 0.0, 0.0, 0.0, 0.0, 0.0, 0.0, 1.686054108949105E9, 0.0, 2023-06-06 14:21:48.949
198.0, 187500.0, -187500.02235174447, 187500.0, -11723.51231855301, 20515.034558181116, 7426.232984809039, 2129.5177494904697, -2001.3975502726496, -0.004, -0.012, 0.974, 192.0, 0.0, 0.0, 0.0, 0.0, 0.0, 0.0, 0.0, 0.0, 0.0, 1.686054108953101E9, 0.0, 2023-06-06 14:21:48.953
199.0, 187500.0, -187500.02235174447, 187500.0, -11729.65904827822, 20544.292991673112, 7453.993851422531, 2174.1094796788075, -2013.6016027452474, -0.004, -0.012, 0.974, 192.0, 0.0, 0.0, 255.0, 144.0, 30.0, 64.0, 0.0, 0.0, 0.0, 1.686054108957131E9, 0.0, 2023-06-06 14:21:48.957
200.0, 187500.0, -187500.02235174447, 187500.0, -11761.532635871486, 20534.793500279608, 7425.473025497559, 2144.381659553249, -2056.8745800107217, -0.004, -0.012, 0.974, 192.0, 0.0, 0.0, 0.0, 0.0, 0.0, 0.0, 0.0, 0.0, 0.0, 1.686054108960094E9, 0.0, 2023-06-06 14:21:48.960
201.0, 187500.0, -187500.02235174447, 187500.0, -11759.14099921477, 20466.441865735276, 7372.6335016052135, 2062.0378329798978, -2122.566356964869, -0.004, -0.012, 0.974, 192.0, 0.0, 0.0, 0.0, 0.0, 0.0, 0.0, 0.0, 0.0, 0.0, 1.686054108964145E9, 0.0, 2023-06-06 14:21:48.964
202.0, 187500.0, -187500.02235174447, 187500.0, -11726.842728476851, 20391.56352181, 7370.219513204041, 2045.8551699942554, -2221.24930873505, -0.004, -0.012, 0.974, 192.0, 0.0, 0.0, 0.0, 0.0, 0.0, 0.0, 0.0, 0.0, 0.0, 1.686054108968094E9, 0.0, 2023-06-06 14:21:48.968
203.0, 187500.0, -187500.02235174447, 187500.0, -11710.682417235663, 20354.705495203198, 7441.812150694389, 2148.293214832928, -2360.925359836264, -0.004, -0.012, 0.974, 192.0, 0.0, 0.0, 0.0, 0.0, 0.0, 0.0, 0.0, 0.0, 0.0, 1.686054108973105E9, 0.0, 2023-06-06 14:21:48.973
204.0, 187500.0, -187500.02235174447, 187500.0, -11725.635734276264, 20392.211722399203, 7464.052136427419, 2187.05113971843, -2249.792486404477, -0.004, -0.012, 0.974, 192.0, 0.0, 0.0, 0.0, 0.0, 0.0, 0.0, 0.0, 0.0, 0.0, 1.686054108977101E9, 0.0, 2023-06-06 14:21:48.977
205.0, 187500.0, -187500.02235174447, 187500.0, -11747.160464186725, 20397.03969920155, 7425.8753568977545, 2143.152313608207, -2204.574907371391, -0.004, -0.012, 0.974, 192.0, 0.0, 0.0, 0.0, 0.0, 0.0, 0.0, 0.0, 0.0, 0.0, 1.686054108981244E9, 0.0, 2023-06-06 14:21:48.981
206.0, 187500.0, -187500.02235174447, 187500.0, -11726.976838943583, 20318.20509650768, 7358.8424752762885, 2039.6860885245908, -2226.1666925152176, -0.004, -0.012, 0.974, 192.0, 0.0, 0.0, 0.0, 0.0, 0.0, 0.0, 0.0, 0.0, 0.0, 1.686054108984225E9, 0.0, 2023-06-06 14:21:48.984
207.0, 187500.0, -187500.02235174447, 187500.0, -11707.910800923206, 20279.246005922083, 7355.914396752643, 2026.2750418514065, -2198.2940671794495, -0.004, -0.012, 0.974, 192.0, 0.0, 0.0, 0.0, 0.0, 0.0, 0.0, 0.0, 0.0, 0.0, 1.686054108988233E9, 0.0, 2023-06-06 14:21:48.988
208.0, 187500.0, -187500.02235174447, 187500.0, -11727.759149999518, 20395.005690456117, 7450.484627543048, 2163.0453661734305, -2103.2097462665733, -0.004, -0.012, 0.974, 192.0, 0.0, 0.0, 0.0, 0.0, 0.0, 0.0, 0.0, 0.0, 0.0, 1.686054108992232E9, 0.0, 2023-06-06 14:21:48.992
209.0, 187500.0, -187500.02235174447, 187500.0, -11739.292650138457, 20483.04921186557, 7472.769316764989, 2195.2989334224385, -2002.9174688956107, 0.002, -0.008, 0.97, 192.0, 0.0, 16.0, 255.0, 192.0, 30.0, 80.0, 0.0, 0.0, 0.0, 1.686054108996209E9, 0.0, 2023-06-06 14:21:48.996
210.0, 187500.0, -187500.02235174447, 187500.0, -11759.99036550407, 20575.87600658846, 7430.189243577629, 2139.508979261992, -1847.4387344644947, 0.002, -0.008, 0.97, 192.0, 0.0, 0.0, 0.0, 0.0, 0.0, 0.0, 0.0, 0.0, 0.0, 1.686054109001238E9, 0.0, 2023-06-06 14:21:49.001
211.0, 187500.0, -187500.02235174447, 187500.0, -11745.774656030495, 20491.140543358393, 7364.676280579124, 2041.3624693587387, -2004.7950154298564, 0.002, -0.008, 0.97, 192.0, 0.0, 0.0, 0.0, 0.0, 0.0, 0.0, 0.0, 0.0, 0.0, 1.686054109005356E9, 0.0, 2023-06-06 14:21:49.005
212.0, 187500.0, -187500.02235174447, 187500.0, -11728.22853663308, 20438.56924039951, 7363.335175911806, 2031.8853297096884, -2077.3934814206937, 0.002, -0.008, 0.97, 192.0, 0.0, 0.0, 0.0, 0.0, 0.0, 0.0, 0.0, 0.0, 0.0, 1.686054109009386E9, 0.0, 2023-06-06 14:21:49.009
213.0, 187500.0, -187500.02235174447, 187500.0, -11725.859251720816, 20498.06958413954, 7434.436075024138, 2129.316583790372, -2054.035908464898, 0.002, -0.008, 0.97, 192.0, 0.0, 0.0, 0.0, 0.0, 0.0, 0.0, 0.0, 0.0, 0.0, 1.686054109012354E9, 0.0, 2023-06-06 14:21:49.012
214.0, 187500.0, -187500.02235174447, 187500.0, -11729.03319943347, 20529.384378121424, 7462.487514315548, 2167.9851016980533, -2054.6170538207357, 0.002, -0.008, 0.97, 192.0, 0.0, 0.0, 0.0, 0.0, 0.0, 0.0, 0.0, 0.0, 0.0, 1.686054109016339E9, 0.0, 2023-06-06 14:21:49.016
215.0, 187500.0, -187500.02235174447, 187500.0, -11755.452961379644, 20516.48742157071, 7426.61296446478, 2130.9482611356093, -2089.4634234265595, 0.002, -0.008, 0.97, 192.0, 0.0, 0.0, 0.0, 0.0, 0.0, 0.0, 0.0, 0.0, 0.0, 1.686054109020359E9, 0.0, 2023-06-06 14:21:49.020
216.0, 187500.0, -187500.02235174447, 187500.0, -11748.032182220482, 20404.08049870497, 7364.07278347883, 2043.932919971099, -2232.8498641073543, 0.002, -0.008, 0.97, 192.0, 0.0, 0.0, 0.0, 0.0, 0.0, 0.0, 0.0, 0.0, 0.0, 1.686054109024353E9, 0.0, 2023-06-06 14:21:49.024
217.0, 187500.0, -187500.02235174447, 187500.0, -11722.84176621935, 20264.404447603756, 7361.234111933007, 2043.128257170708, -2423.2643751221153, 0.002, -0.008, 0.97, 192.0, 0.0, 0.0, 0.0, 0.0, 0.0, 0.0, 0.0, 0.0, 0.0, 1.686054109028347E9, 0.0, 2023-06-06 14:21:49.028
218.0, 187500.0, -187500.02235174447, 187500.0, -11733.347086113345, 20341.763835163576, 7439.912252415687, 2143.8452176863216, -2266.109259856851, 0.002, -0.008, 0.97, 192.0, 0.0, 0.0, 0.0, 0.0, 0.0, 0.0, 0.0, 0.0, 0.0, 1.686054109033406E9, 0.0, 2023-06-06 14:21:49.033
219.0, 187500.0, -187500.02235174447, 187500.0, -11751.630813077785, 20387.22728338567, 7457.056040412908, 2172.768375011489, -2183.5642675834024, 0.002, -0.008, 0.97, 192.0, 0.0, 0.0, 255.0, 160.0, 30.0, 80.0, 0.0, 0.0, 0.0, 1.686054109037357E9, 0.0, 2023-06-06 14:21:49.037
220.0, 187500.0, -187500.02235174447, 187500.0, -11760.213882948623, 20391.161190409803, 7418.678095183146, 2132.959918136587, -2173.058947689408, 0.002, -0.008, 0.97, 192.0, 0.0, 0.0, 0.0, 0.0, 0.0, 0.0, 0.0, 0.0, 0.0, 1.686054109040363E9, 0.0, 2023-06-06 14:21:49.040
221.0, 187500.0, -187500.02235174447, 187500.0, -11748.456865365133, 20347.5529369775, 7370.241864948495, 2059.333271900806, -2186.000607729031, 0.002, -0.008, 0.97, 192.0, 0.0, 0.0, 0.0, 0.0, 0.0, 0.0, 0.0, 0.0, 0.0, 1.686054109044337E9, 0.0, 2023-06-06 14:21:49.044
222.0, 187500.0, -187500.02235174447, 187500.0, -11726.663914521208, 20325.759986133577, 7373.214646961052, 2047.0398124503868, -2168.454488331615, 0.002, -0.008, 0.97, 192.0, 0.0, 0.0, 0.0, 0.0, 0.0, 0.0, 0.0, 0.0, 0.0, 1.686054109048378E9, 0.0, 2023-06-06 14:21:49.048
223.0, 187500.0, -187500.02235174447, 187500.0, -11718.147899883736, 20430.65672286233, 7444.7178774735785, 2138.413743783682, -2018.742503969968, 0.002, -0.008, 0.97, 192.0, 0.0, 0.0, 0.0, 0.0, 0.0, 0.0, 0.0, 0.0, 0.0, 1.686054109054151E9, 0.0, 2023-06-06 14:21:49.054
224.0, 187500.0, -187500.02235174447, 187500.0, -11731.961277957116, 20573.864349587482, 7470.467087086093, 2171.00258719952, -1807.8314432896905, 0.002, -0.008, 0.97, 192.0, 0.0, 0.0, 0.0, 0.0, 0.0, 0.0, 0.0, 0.0, 0.0, 1.686054109056332E9, 0.0, 2023-06-06 14:21:49.056
225.0, 187500.0, -187500.02235174447, 187500.0, -11747.383981631277, 20559.78275058064, 7437.9676506480755, 2133.4516565146037, -1924.0605144572874, 0.002, -0.008, 0.97, 192.0, 0.0, 0.0, 0.0, 0.0, 0.0, 0.0, 0.0, 0.0, 0.0, 1.686054109061462E9, 0.0, 2023-06-06 14:21:49.061
226.0, 187500.0, -187500.02235174447, 187500.0, -11746.84753976435, 20480.501112997666, 7380.121335997741, 2053.477114853515, -2042.1224286702193, 0.002, -0.008, 0.97, 192.0, 0.0, 0.0, 0.0, 0.0, 0.0, 0.0, 0.0, 0.0, 0.0, 1.686054109064469E9, 0.0, 2023-06-06 14:21:49.064
227.0, 187500.0, -187500.02235174447, 187500.0, -11732.140091912759, 20441.072635778506, 7379.607245875269, 2042.413001348138, -2082.0202925229423, 0.002, -0.008, 0.97, 192.0, 0.0, 0.0, 0.0, 0.0, 0.0, 0.0, 0.0, 0.0, 0.0, 1.686054109068478E9, 0.0, 2023-06-06 14:21:49.068
228.0, 187500.0, -187500.02235174447, 187500.0, -11726.574507543386, 20512.06177616856, 7457.972461935576, 2146.929758421154, -2042.9941467039762, 0.002, -0.008, 0.97, 192.0, 0.0, 0.0, 0.0, 0.0, 0.0, 0.0, 0.0, 0.0, 0.0, 1.686054109072499E9, 0.0, 2023-06-06 14:21:49.072
229.0, 187500.0, -187500.02235174447, 187500.0, -11729.055551177926, 20551.06557024307, 7485.733328549067, 2191.4544333761255, -2037.540321056881, 0.002, -0.008, 0.97, 192.0, 0.0, 0.0, 0.0, 0.0, 0.0, 0.0, 0.0, 0.0, 0.0, 1.686054109076481E9, 0.0, 2023-06-06 14:21:49.076
230.0, 187500.0, -187500.02235174447, 187500.0, -11753.731877056585, 20498.986005662206, 7447.645955997224, 2155.37871782526, -2165.124078407774, 0.002, -0.012, 0.97, 192.0, 0.0, 16.0, 255.0, 160.0, 30.0, 80.0, 0.0, 0.0, 0.0, 1.686054109080528E9, 0.0, 2023-06-06 14:21:49.080
231.0, 187500.0, -187500.02235174447, 187500.0, -11736.364571614811, 20313.086547027415, 7385.999844789487, 2071.090289484297, -2420.112779153917, 0.002, -0.012, 0.97, 192.0, 0.0, 0.0, 0.0, 0.0, 0.0, 0.0, 0.0, 0.0, 0.0, 1.686054109084489E9, 0.0, 2023-06-06 14:21:49.084
232.0, 187500.0, -187500.02235174447, 187500.0, -11718.661990006209, 20292.791163061996, 7382.088289509808, 2064.8541527812663, -2317.4288651262364, 0.002, -0.012, 0.97, 192.0, 0.0, 0.0, 0.0, 0.0, 0.0, 0.0, 0.0, 0.0, 0.0, 1.686054109088467E9, 0.0, 2023-06-06 14:21:49.088
233.0, 187500.0, -187500.02235174447, 187500.0, -11726.552155798932, 20398.5149143356, 7464.8120957389, 2176.5234680799804, -2174.020072700986, 0.002, -0.012, 0.97, 192.0, 0.0, 0.0, 0.0, 0.0, 0.0, 0.0, 0.0, 0.0, 0.0, 1.6860541090925E9, 0.0, 2023-06-06 14:21:49.092
234.0, 187500.0, -187500.02235174447, 187500.0, -11722.37237958579, 20444.157176513338, 7487.253247172028, 2210.833395818877, -2126.9025953891987, 0.002, -0.012, 0.97, 192.0, 0.0, 0.0, 0.0, 0.0, 0.0, 0.0, 0.0, 0.0, 0.0, 1.686054109095624E9, 0.0, 2023-06-06 14:21:49.095
235.0, 187500.0, -187500.02235174447, 187500.0, -11732.453016335132, 20438.79275784406, 7446.818941452378, 2167.515715064492, -2133.675173959157, 0.002, -0.012, 0.97, 192.0, 0.0, 0.0, 0.0, 0.0, 0.0, 0.0, 0.0, 0.0, 0.0, 1.686054109100616E9, 0.0, 2023-06-06 14:21:49.100
236.0, 187500.0, -187500.02235174447, 187500.0, -11724.205222631124, 20373.83858845694, 7387.922094812643, 2085.1048332577748, -2166.6439970307347, 0.002, -0.012, 0.97, 192.0, 0.0, 0.0, 0.0, 0.0, 0.0, 0.0, 0.0, 0.0, 0.0, 1.686054109104641E9, 0.0, 2023-06-06 14:21:49.104
237.0, 187500.0, -187500.02235174447, 187500.0, -11726.842728476851, 20387.786076997054, 7389.665530880157, 2082.132051245219, -2064.0494899808755, 0.002, -0.012, 0.97, 192.0, 0.0, 0.0, 0.0, 0.0, 0.0, 0.0, 0.0, 0.0, 0.0, 1.686054109108595E9, 0.0, 2023-06-06 14:21:49.108
238.0, 187500.0, -187500.02235174447, 187500.0, -11737.70567628213, 20583.475599703266, 7474.199828410128, 2189.7557007975224, -1805.842138033168, 0.002, -0.012, 0.97, 192.0, 0.0, 0.0, 0.0, 0.0, 0.0, 0.0, 0.0, 0.0, 0.0, 1.686054109112621E9, 0.0, 2023-06-06 14:21:49.112
239.0, 187500.0, -187500.02235174447, 187500.0, -11723.132338897269, 20620.37832979898, 7501.178383967685, 2219.0364860339746, -1884.3861680491173, 0.002, -0.012, 0.97, 192.0, 0.0, 0.0, 0.0, 0.0, 0.0, 0.0, 0.0, 0.0, 0.0, 1.686054109116689E9, 0.0, 2023-06-06 14:21:49.116
240.0, 187500.0, -187500.02235174447, 187500.0, -11728.206184888624, 20596.417259742888, 7464.633281783257, 2176.7916890134443, -1976.4306517160717, 0.004, -0.014, 0.964, 192.0, 0.0, 32.0, 255.0, 144.0, 30.0, 32.0, 0.0, 0.0, 0.0, 1.686054109120634E9, 0.0, 2023-06-06 14:21:49.120
241.0, 187500.0, -187500.02235174447, 187500.0, -11731.022504689992, 20517.627360537932, 7401.869583352755, 2089.5528304043805, -2061.702556813068, 0.004, -0.014, 0.964, 192.0, 0.0, 0.0, 0.0, 0.0, 0.0, 0.0, 0.0, 0.0, 0.0, 1.6860541091236E9, 0.0, 2023-06-06 14:21:49.123
242.0, 187500.0, -187500.02235174447, 187500.0, -11721.545365040942, 20482.535121743098, 7402.026045563942, 2085.149536746685, -2079.092213999297, 0.004, -0.014, 0.964, 192.0, 0.0, 0.0, 0.0, 0.0, 0.0, 0.0, 0.0, 0.0, 0.0, 1.686054109128624E9, 0.0, 2023-06-06 14:21:49.128
243.0, 187500.0, -187500.02235174447, 187500.0, -11706.12266136678, 20555.066532500572, 7480.413613368704, 2189.6886455641566, -2029.3595825862387, 0.004, -0.014, 0.964, 192.0, 0.0, 0.0, 0.0, 0.0, 0.0, 0.0, 0.0, 0.0, 0.0, 1.686054109132669E9, 0.0, 2023-06-06 14:21:49.132
244.0, 187500.0, -187500.02235174447, 187500.0, -11708.000207901026, 20538.213317181267, 7498.33971242186, 2217.62832613329, -2120.152368563696, 0.004, -0.014, 0.964, 192.0, 0.0, 0.0, 0.0, 0.0, 0.0, 0.0, 0.0, 0.0, 0.0, 1.686054109136589E9, 0.0, 2023-06-06 14:21:49.136
245.0, 187500.0, -187500.02235174447, 187500.0, -11721.277144107478, 20414.585818598964, 7459.201807880618, 2183.2289914165726, -2346.0838015179397, 0.004, -0.014, 0.964, 192.0, 0.0, 0.0, 0.0, 0.0, 0.0, 0.0, 0.0, 0.0, 0.0, 1.686054109140721E9, 0.0, 2023-06-06 14:21:49.140
246.0, 187500.0, -187500.02235174447, 187500.0, -11708.849574190328, 20353.900832402807, 7403.300094997895, 2106.9871910795205, -2291.6796555137225, 0.004, -0.014, 0.964, 192.0, 0.0, 0.0, 0.0, 0.0, 0.0, 0.0, 0.0, 0.0, 0.0, 1.686054109144741E9, 0.0, 2023-06-06 14:21:49.144
247.0, 187500.0, -187500.02235174447, 187500.0, -11699.439489774644, 20338.008742095084, 7402.853060108789, 2096.772443863445, -2219.1035412673405, 0.004, -0.014, 0.964, 192.0, 0.0, 0.0, 0.0, 0.0, 0.0, 0.0, 0.0, 0.0, 0.0, 1.68605410914873E9, 0.0, 2023-06-06 14:21:49.148
248.0, 187500.0, -187500.02235174447, 187500.0, -11703.4628037766, 20430.23203971768, 7482.358215136316, 2200.4621863916145, -2122.476949987048, 0.004, -0.014, 0.964, 192.0, 0.0, 0.0, 0.0, 0.0, 0.0, 0.0, 0.0, 0.0, 0.0, 1.686054109151713E9, 0.0, 2023-06-06 14:21:49.151
249.0, 187500.0, -187500.02235174447, 187500.0, -11707.664931734196, 20466.844197135473, 7507.928610793187, 2228.737143127578, -2090.6927693716016, 0.004, -0.014, 0.964, 192.0, 0.0, 0.0, 0.0, 0.0, 0.0, 0.0, 0.0, 0.0, 0.0, 1.686054109155721E9, 0.0, 2023-06-06 14:21:49.155
250.0, 187500.0, -187500.02235174447, 187500.0, -11720.070149906893, 20460.47394996571, 7470.154162663718, 2188.727520552578, -2104.1038160447856, 0.002, -0.014, 0.966, 192.0, 0.0, 16.0, 255.0, 144.0, 30.0, 48.0, 0.0, 0.0, 0.0, 1.686054109160748E9, 0.0, 2023-06-06 14:21:49.160
251.0, 187500.0, -187500.02235174447, 187500.0, -11705.474460777577, 20429.04739726155, 7404.238868265018, 2093.4420339396042, -2056.829876521811, 0.002, -0.014, 0.966, 192.0, 0.0, 0.0, 0.0, 0.0, 0.0, 0.0, 0.0, 0.0, 0.0, 1.686054109164721E9, 0.0, 2023-06-06 14:21:49.164
252.0, 187500.0, -187500.02235174447, 187500.0, -11706.74851021153, 20499.47774404022, 7396.41575770566, 2070.777365061923, -1859.553379959271, 0.002, -0.014, 0.966, 192.0, 0.0, 0.0, 0.0, 0.0, 0.0, 0.0, 0.0, 0.0, 0.0, 1.686054109168712E9, 0.0, 2023-06-06 14:21:49.168
253.0, 187500.0, -187500.02235174447, 187500.0, -11712.135280625258, 20572.702058875806, 7473.998662710031, 2175.294122134939, -1893.8186042092568, 0.002, -0.014, 0.966, 192.0, 0.0, 0.0, 0.0, 0.0, 0.0, 0.0, 0.0, 0.0, 0.0, 1.686054109172721E9, 0.0, 2023-06-06 14:21:49.172
254.0, 187500.0, -187500.02235174447, 187500.0, -11720.070149906893, 20598.853599888516, 7500.19490721165, 2218.3659337003155, -1948.1109914911976, 0.002, -0.014, 0.966, 192.0, 0.0, 0.0, 0.0, 0.0, 0.0, 0.0, 0.0, 0.0, 0.0, 1.686054109176776E9, 0.0, 2023-06-06 14:21:49.176
255.0, 187500.0, -187500.02235174447, 187500.0, -11732.050684934937, 20583.900282847917, 7467.471953329081, 2184.86066876181, -2006.940782897566, 0.002, -0.014, 0.966, 192.0, 0.0, 0.0, 0.0, 0.0, 0.0, 0.0, 0.0, 0.0, 0.0, 1.686054109179861E9, 0.0, 2023-06-06 14:21:49.179
0.0, 187500.0, -187500.02235174447, 187500.0, -11728.049722677437, 20503.456354553266, 7403.5683159313585, 2092.1456327611963, -2082.802603578878, 0.002, -0.014, 0.966, 192.0, 0.0, 0.0, 0.0, 0.0, 0.0, 0.0, 0.0, 0.0, 0.0, 1.686054109183851E9, 0.0, 2023-06-06 14:21:49.183
1.0, 187500.0, -187500.02235174447, 187500.0, -11711.55413526942, 20453.030819062093, 7392.07951928133, 2064.8541527812663, -2102.8297666108333, 0.002, -0.014, 0.966, 192.0, 0.0, 0.0, 0.0, 0.0, 0.0, 0.0, 0.0, 0.0, 0.0, 1.686054109188859E9, 0.0, 2023-06-06 14:21:49.188
2.0, 187500.0, -187500.02235174447, 187500.0, -11703.55221075442, 20484.01033687715, 7472.791668509444, 2167.2921976199386, -2131.4847030025367, 0.002, -0.014, 0.966, 192.0, 0.0, 0.0, 0.0, 0.0, 0.0, 0.0, 0.0, 0.0, 0.0, 1.68605410919286E9, 0.0, 2023-06-06 14:21:49.192
3.0, 187500.0, -187500.02235174447, 187500.0, -11709.609533501809, 20413.98232149867, 7496.708035076623, 2210.1628434852178, -2309.784568522521, 0.002, -0.014, 0.966, 192.0, 0.0, 0.0, 0.0, 0.0, 0.0, 0.0, 0.0, 0.0, 0.0, 1.686054109196855E9, 0.0, 2023-06-06 14:21:49.196
4.0, 187500.0, -187500.02235174447, 187500.0, -11730.597821545342, 20418.832650045475, 7464.588578294347, 2180.9044099932207, -2235.7108873976335, -0.002, -0.01, 0.968, 192.0, 255.0, 240.0, 255.0, 176.0, 30.0, 64.0, 0.0, 0.0, 0.0, 1.686054109200837E9, 0.0, 2023-06-06 14:21:49.200
5.0, 187500.0, -187500.02235174447, 187500.0, -11716.806795216418, 20363.735599963144, 7402.696597897601, 2084.769557090945, -2217.024829032997, -0.002, -0.01, 0.968, 192.0, 0.0, 0.0, 0.0, 0.0, 0.0, 0.0, 0.0, 0.0, 0.0, 1.686054109203864E9, 0.0, 2023-06-06 14:21:49.203
6.0, 187500.0, -187500.02235174447, 187500.0, -11698.388957785244, 20341.942649119217, 7397.958028073076, 2070.5985511062804, -2178.088090191852, -0.002, -0.01, 0.968, 192.0, 0.0, 0.0, 0.0, 0.0, 0.0, 0.0, 0.0, 0.0, 0.0, 1.686054109207898E9, 0.0, 2023-06-06 14:21:49.207
7.0, 187500.0, -187500.02235174447, 187500.0, -11694.902085650217, 20431.3719786849, 7478.848991256833, 2180.47972684857, -2092.5032606724812, -0.002, -0.01, 0.968, 192.0, 0.0, 0.0, 0.0, 0.0, 0.0, 0.0, 0.0, 0.0, 0.0, 1.686054109211836E9, 0.0, 2023-06-06 14:21:49.211
8.0, 187500.0, -187500.02235174447, 187500.0, -11698.098385107325, 20472.879168138406, 7501.24543920105, 2215.6837243656787, -2066.0164434929425, -0.002, -0.01, 0.968, 192.0, 0.0, 0.0, 0.0, 0.0, 0.0, 0.0, 0.0, 0.0, 0.0, 1.686054109215958E9, 0.0, 2023-06-06 14:21:49.215
9.0, 187500.0, -187500.02235174447, 187500.0, -11726.194527887646, 20510.58656103451, 7468.567188807391, 2182.536087338458, -1994.356750769228, -0.002, -0.01, 0.968, 192.0, 0.0, 0.0, 0.0, 0.0, 0.0, 0.0, 0.0, 0.0, 0.0, 1.686054109220994E9, 0.0, 2023-06-06 14:21:49.220
10.0, 187500.0, -187500.02235174447, 187500.0, -11723.959353442116, 20541.096692216004, 7406.429339221638, 2080.6791878556237, -1853.585464189704, -0.002, -0.01, 0.968, 192.0, 0.0, 0.0, 0.0, 0.0, 0.0, 0.0, 0.0, 0.0, 0.0, 1.686054109224995E9, 0.0, 2023-06-06 14:21:49.224
11.0, 187500.0, -187500.02235174447, 187500.0, -11712.761129470007, 20495.63324399391, 7396.013426305464, 2055.6228823212246, -1952.8942648046334, -0.002, -0.01, 0.968, 192.0, 0.0, 0.0, 0.0, 0.0, 0.0, 0.0, 0.0, 0.0, 0.0, 1.686054109227984E9, 0.0, 2023-06-06 14:21:49.227
12.0, 187500.0, -187500.02235174447, 187500.0, -11712.850536447828, 20563.22491922676, 7477.485534845059, 2167.091031919841, -1955.5764741392702, -0.002, -0.01, 0.968, 192.0, 0.0, 0.0, 0.0, 0.0, 0.0, 0.0, 0.0, 0.0, 0.0, 1.686054109231963E9, 0.0, 2023-06-06 14:21:49.231
13.0, 187500.0, -187500.02235174447, 187500.0, -11708.715463723596, 20589.957605595304, 7507.280410203983, 2204.7537213270334, -1976.6988726495354, -0.002, -0.01, 0.968, 192.0, 0.0, 0.0, 0.0, 0.0, 0.0, 0.0, 0.0, 0.0, 0.0, 1.686054109235986E9, 0.0, 2023-06-06 14:21:49.235
14.0, 187500.0, -187500.02235174447, 187500.0, -11722.215917374602, 20569.885739074438, 7474.691566788146, 2172.120174422285, -2025.2021581175518, -0.002, -0.01, 0.968, 192.0, 0.0, 0.0, 255.0, 160.0, 30.0, 64.0, 0.0, 0.0, 0.0, 1.686054109239981E9, 0.0, 2023-06-06 14:21:49.239
15.0, 187500.0, -187500.02235174447, 187500.0, -11717.23147836107, 20491.989909647695, 7409.536231700926, 2084.456632668571, -2090.022217037942, -0.002, -0.01, 0.968, 192.0, 0.0, 0.0, 0.0, 0.0, 0.0, 0.0, 0.0, 0.0, 0.0, 1.686054109243959E9, 0.0, 2023-06-06 14:21:49.243
16.0, 187500.0, -187500.02235174447, 187500.0, -11699.081861863358, 20403.924036493783, 7400.684940896624, 2059.802658534367, -2196.215354945106, -0.002, -0.01, 0.968, 192.0, 0.0, 0.0, 0.0, 0.0, 0.0, 0.0, 0.0, 0.0, 0.0, 1.68605410924897E9, 0.0, 2023-06-06 14:21:49.248
17.0, 187500.0, -187500.02235174447, 187500.0, -11709.006036401515, 20370.642288999832, 7473.57397956538, 2170.7790697549667, -2333.0080310115854, -0.002, -0.01, 0.968, 192.0, 0.0, 0.0, 0.0, 0.0, 0.0, 0.0, 0.0, 0.0, 0.0, 1.686054109252962E9, 0.0, 2023-06-06 14:21:49.252
18.0, 187500.0, -187500.02235174447, 187500.0, -11714.549269026431, 20402.5158765931, 7493.6681978307015, 2202.3620846703157, -2228.1559977717397, -0.002, -0.01, 0.968, 192.0, 0.0, 0.0, 0.0, 0.0, 0.0, 0.0, 0.0, 0.0, 0.0, 1.686054109255992E9, 0.0, 2023-06-06 14:21:49.255
19.0, 187500.0, -187500.02235174447, 187500.0, -11728.675571522186, 20417.08921397796, 7459.425325325171, 2169.7508895100227, -2175.4952878350364, -0.002, -0.01, 0.968, 192.0, 0.0, 0.0, 0.0, 0.0, 0.0, 0.0, 0.0, 0.0, 0.0, 1.686054109260117E9, 0.0, 2023-06-06 14:21:49.260
20.0, 187500.0, -187500.02235174447, 187500.0, -11726.999190688037, 20358.684105716242, 7392.638312892714, 2080.9697605335427, -2192.6167240878017, -0.002, -0.01, 0.968, 192.0, 0.0, 0.0, 0.0, 0.0, 0.0, 0.0, 0.0, 0.0, 0.0, 1.686054109264111E9, 0.0, 2023-06-06 14:21:49.264
21.0, 187500.0, -187500.02235174447, 187500.0, -11721.254792363025, 20320.21675350866, 7385.239885478007, 2060.8531905237664, -2178.6245320587796, -0.002, -0.01, 0.968, 192.0, 0.0, 0.0, 0.0, 0.0, 0.0, 0.0, 0.0, 0.0, 0.0, 1.686054109268118E9, 0.0, 2023-06-06 14:21:49.268
22.0, 187500.0, -187500.02235174447, 187500.0, -11717.209126616614, 20413.13295520937, 7471.472915586582, 2170.2202761435838, -2094.9843043070205, -0.002, -0.01, 0.968, 192.0, 0.0, 0.0, 0.0, 0.0, 0.0, 0.0, 0.0, 0.0, 0.0, 1.686054109272117E9, 0.0, 2023-06-06 14:21:49.272
23.0, 187500.0, -187500.02235174447, 187500.0, -11709.497774779533, 20496.907293427863, 7498.518526377503, 2206.832433561377, -1979.0011023284321, -0.002, -0.01, 0.968, 192.0, 0.0, 0.0, 0.0, 0.0, 0.0, 0.0, 0.0, 0.0, 0.0, 1.686054109276094E9, 0.0, 2023-06-06 14:21:49.276
24.0, 187500.0, -187500.02235174447, 187500.0, -11732.184795401668, 20609.381271526967, 7471.763488264501, 2172.254284889017, -1802.3105624092298, -0.002, -0.01, 0.968, 192.0, 0.0, 0.0, 255.0, 144.0, 30.0, 96.0, 0.0, 0.0, 0.0, 1.686054109281147E9, 0.0, 2023-06-06 14:21:49.281
25.0, 187500.0, -187500.02235174447, 187500.0, -11723.959353442116, 20528.557363576576, 7406.921077599654, 2071.3361586733054, -1954.0789072607647, -0.002, -0.01, 0.968, 192.0, 0.0, 0.0, 0.0, 0.0, 0.0, 0.0, 0.0, 0.0, 0.0, 1.686054109284108E9, 0.0, 2023-06-06 14:21:49.284
26.0, 187500.0, -187500.02235174447, 187500.0, -11716.873850449783, 20474.75671467265, 7393.800603604389, 2049.7220217850236, -2031.6841640095909, -0.002, -0.01, 0.968, 192.0, 0.0, 0.0, 0.0, 0.0, 0.0, 0.0, 0.0, 0.0, 0.0, 1.68605410928809E9, 0.0, 2023-06-06 14:21:49.288
27.0, 187500.0, -187500.02235174447, 187500.0, -11719.287838850956, 20542.907183516883, 7474.557456321413, 2153.747040480023, -2008.5948119872585, -0.002, -0.01, 0.968, 192.0, 0.0, 0.0, 0.0, 0.0, 0.0, 0.0, 0.0, 0.0, 0.0, 1.686054109292115E9, 0.0, 2023-06-06 14:21:49.292
28.0, 187500.0, -187500.02235174447, 187500.0, -11726.216879632102, 20563.806064582597, 7495.925724020687, 2182.156107682718, -2024.2186813615183, -0.002, -0.01, 0.968, 192.0, 0.0, 0.0, 0.0, 0.0, 0.0, 0.0, 0.0, 0.0, 0.0, 1.686054109296228E9, 0.0, 2023-06-06 14:21:49.296
29.0, 187500.0, -187500.02235174447, 187500.0, -11751.966089244615, 20544.292991673112, 7457.614834024291, 2144.7839909534446, -2065.5023533704702, -0.002, -0.01, 0.968, 192.0, 0.0, 0.0, 0.0, 0.0, 0.0, 0.0, 0.0, 0.0, 0.0, 1.686054109300228E9, 0.0, 2023-06-06 14:21:49.300
30.0, 187500.0, -187500.02235174447, 187500.0, -11734.08469368037, 20435.596458386954, 7398.516821684459, 2061.0767079683196, -2208.732331840078, -0.002, -0.01, 0.968, 192.0, 0.0, 0.0, 0.0, 0.0, 0.0, 0.0, 0.0, 0.0, 0.0, 1.686054109304237E9, 0.0, 2023-06-06 14:21:49.304
31.0, 187500.0, -187500.02235174447, 187500.0, -11717.075016149882, 20289.25958743806, 7389.419661691149, 2047.933882228599, -2409.1604243708166, -0.002, -0.01, 0.968, 192.0, 0.0, 0.0, 0.0, 0.0, 0.0, 0.0, 0.0, 0.0, 0.0, 1.686054109309219E9, 0.0, 2023-06-06 14:21:49.309
32.0, 187500.0, -187500.02235174447, 187500.0, -11724.428740075677, 20376.252576858114, 7468.969520207587, 2165.2358371300506, -2252.6311579503013, -0.002, -0.01, 0.968, 192.0, 0.0, 0.0, 0.0, 0.0, 0.0, 0.0, 0.0, 0.0, 0.0, 1.686054109312214E9, 0.0, 2023-06-06 14:21:49.312
33.0, 187500.0, -187500.02235174447, 187500.0, -11717.432644061166, 20436.490528165166, 7502.34067467936, 2206.5865643723687, -2159.960825438598, -0.002, -0.01, 0.968, 192.0, 0.0, 0.0, 0.0, 0.0, 0.0, 0.0, 0.0, 0.0, 0.0, 1.686054109316215E9, 0.0, 2023-06-06 14:21:49.316
34.0, 187500.0, -187500.02235174447, 187500.0, -11726.418045332199, 20449.2757259936, 7473.8869039877545, 2175.584694812858, -2135.597423982313, 0.002, -0.012, 0.97, 192.0, 0.0, 16.0, 255.0, 160.0, 30.0, 80.0, 0.0, 0.0, 0.0, 1.686054109320377E9, 0.0, 2023-06-06 14:21:49.320
35.0, 187500.0, -187500.02235174447, 187500.0, -11723.51231855301, 20378.04071641454, 7405.08823455432, 2072.9231325296323, -2173.081299433863, 0.002, -0.012, 0.97, 192.0, 0.0, 0.0, 0.0, 0.0, 0.0, 0.0, 0.0, 0.0, 0.0, 1.686054109324338E9, 0.0, 2023-06-06 14:21:49.324
36.0, 187500.0, -187500.02235174447, 187500.0, -11715.689207993652, 20341.182689807738, 7399.410891462671, 2047.3750886172163, -2165.7499272525224, 0.002, -0.012, 0.97, 192.0, 0.0, 0.0, 0.0, 0.0, 0.0, 0.0, 0.0, 0.0, 0.0, 1.686054109328378E9, 0.0, 2023-06-06 14:21:49.328
37.0, 187500.0, -187500.02235174447, 187500.0, -11718.639638261753, 20468.788798903086, 7475.183305166162, 2153.992909669031, -2001.8892886506665, 0.002, -0.012, 0.97, 192.0, 0.0, 0.0, 0.0, 0.0, 0.0, 0.0, 0.0, 0.0, 0.0, 1.686054109332367E9, 0.0, 2023-06-06 14:21:49.332
38.0, 187500.0, -187500.02235174447, 187500.0, -11720.718350496096, 20607.727242437275, 7493.712901319612, 2177.1269651802736, -1798.1531379405426, 0.002, -0.012, 0.97, 192.0, 0.0, 0.0, 0.0, 0.0, 0.0, 0.0, 0.0, 0.0, 0.0, 1.686054109336361E9, 0.0, 2023-06-06 14:21:49.336
39.0, 187500.0, -187500.02235174447, 187500.0, -11739.784388516473, 20602.742803423742, 7466.264959128494, 2146.4827235320477, -1913.1528631630974, 0.002, -0.012, 0.97, 192.0, 0.0, 0.0, 0.0, 0.0, 0.0, 0.0, 0.0, 0.0, 0.0, 1.686054109339354E9, 0.0, 2023-06-06 14:21:49.339
40.0, 187500.0, -187500.02235174447, 187500.0, -11726.663914521208, 20516.688587270808, 7404.216516520562, 2059.64619632318, -2033.2487861214622, 0.002, -0.012, 0.97, 192.0, 0.0, 0.0, 0.0, 0.0, 0.0, 0.0, 0.0, 0.0, 0.0, 1.686054109343348E9, 0.0, 2023-06-06 14:21:49.343
41.0, 187500.0, -187500.02235174447, 187500.0, -11705.653274733218, 20459.13284529839, 7393.062996037364, 2037.4509140790599, -2074.0854232413085, 0.002, -0.012, 0.97, 192.0, 0.0, 0.0, 0.0, 0.0, 0.0, 0.0, 0.0, 0.0, 0.0, 1.686054109348351E9, 0.0, 2023-06-06 14:21:49.348
42.0, 187500.0, -187500.02235174447, 187500.0, -11713.789309714952, 20526.72452053124, 7471.651729542224, 2144.247549086517, -2032.3770680877053, 0.002, -0.012, 0.97, 192.0, 0.0, 0.0, 0.0, 0.0, 0.0, 0.0, 0.0, 0.0, 0.0, 1.68605410935233E9, 0.0, 2023-06-06 14:21:49.352
43.0, 187500.0, -187500.02235174447, 187500.0, -11731.22367039009, 20565.862425072482, 7491.902410018732, 2179.3397878813494, -2032.8911582101773, 0.002, -0.012, 0.97, 192.0, 0.0, 0.0, 0.0, 0.0, 0.0, 0.0, 0.0, 0.0, 0.0, 1.686054109356378E9, 0.0, 2023-06-06 14:21:49.356
44.0, 187500.0, -187500.02235174447, 187500.0, -11736.722199526097, 20522.67885478483, 7459.00064218052, 2143.8899211752323, -2156.250435859017, 0.002, -0.012, 0.97, 192.0, 0.0, 0.0, 255.0, 176.0, 30.0, 128.0, 0.0, 0.0, 0.0, 1.686054109360377E9, 0.0, 2023-06-06 14:21:49.360
45.0, 187500.0, -187500.02235174447, 187500.0, -11720.003094673526, 20336.26530602757, 7389.374958202238, 2051.7336787860013, -2410.0321424045733, 0.002, -0.012, 0.97, 192.0, 0.0, 0.0, 0.0, 0.0, 0.0, 0.0, 0.0, 0.0, 0.0, 1.686054109364344E9, 0.0, 2023-06-06 14:21:49.364
46.0, 187500.0, -187500.02235174447, 187500.0, -11709.050739890426, 20297.39562241979, 7384.099946510786, 2039.6637367801354, -2318.4793971156355, 0.002, -0.012, 0.97, 192.0, 0.0, 0.0, 0.0, 0.0, 0.0, 0.0, 0.0, 0.0, 0.0, 1.686054109367329E9, 0.0, 2023-06-06 14:21:49.367
47.0, 187500.0, -187500.02235174447, 187500.0, -11720.874812707283, 20402.98526322666, 7469.774183007978, 2161.994834184031, -2177.3728343692824, 0.002, -0.012, 0.97, 192.0, 0.0, 0.0, 0.0, 0.0, 0.0, 0.0, 0.0, 0.0, 0.0, 1.68605410937149E9, 0.0, 2023-06-06 14:21:49.371
48.0, 187500.0, -187500.02235174447, 187500.0, -11717.32088533889, 20453.500205695655, 7499.926686278187, 2205.0666457494076, -2125.2709180439615, 0.002, -0.012, 0.97, 192.0, 0.0, 0.0, 0.0, 0.0, 0.0, 0.0, 0.0, 0.0, 0.0, 1.686054109375472E9, 0.0, 2023-06-06 14:21:49.375
49.0, 187500.0, -187500.02235174447, 187500.0, -11735.403446603234, 20448.29224923757, 7469.349499863327, 2172.053119188919, -2130.478874502048, 0.002, -0.012, 0.97, 192.0, 0.0, 0.0, 0.0, 0.0, 0.0, 0.0, 0.0, 0.0, 0.0, 1.686054109380466E9, 0.0, 2023-06-06 14:21:49.380
50.0, 187500.0, -187500.02235174447, 187500.0, -11725.345161598345, 20379.448876315222, 7406.474042710548, 2080.7015396000793, -2165.1017266633185, 0.002, -0.012, 0.97, 192.0, 0.0, 0.0, 0.0, 0.0, 0.0, 0.0, 0.0, 0.0, 0.0, 1.686054109384511E9, 0.0, 2023-06-06 14:21:49.384
51.0, 187500.0, -187500.02235174447, 187500.0, -11713.40933005921, 20371.871634944873, 7394.292341982406, 2059.2662166674395, -2107.3001155018947, 0.002, -0.012, 0.97, 192.0, 0.0, 0.0, 0.0, 0.0, 0.0, 0.0, 0.0, 0.0, 0.0, 1.686054109388495E9, 0.0, 2023-06-06 14:21:49.388
52.0, 187500.0, -187500.02235174447, 187500.0, -11709.207202101614, 20567.91878556237, 7475.7644505220005, 2161.57015103938, -1816.8615480496346, 0.002, -0.012, 0.97, 192.0, 0.0, 0.0, 0.0, 0.0, 0.0, 0.0, 0.0, 0.0, 0.0, 1.686054109391487E9, 0.0, 2023-06-06 14:21:49.391
53.0, 187500.0, -187500.02235174447, 187500.0, -11713.02935040347, 20611.102355850024, 7499.747872322545, 2190.4486048756366, -1864.4707637394386, 0.002, -0.012, 0.97, 192.0, 0.0, 0.0, 0.0, 0.0, 0.0, 0.0, 0.0, 0.0, 0.0, 1.686054109395463E9, 0.0, 2023-06-06 14:21:49.395
54.0, 187500.0, -187500.02235174447, 187500.0, -11739.672629794197, 20584.50377994821, 7467.807229495911, 2161.4583923171035, -1977.3694249831947, 0.002, -0.012, 0.97, 192.0, 0.0, 0.0, 255.0, 176.0, 30.0, 112.0, 0.0, 0.0, 0.0, 1.686054109399505E9, 0.0, 2023-06-06 14:21:49.399
55.0, 187500.0, -187500.02235174447, 187500.0, -11736.029295447981, 20498.226046350723, 7400.059092051875, 2069.168039461141, -2078.265199454451, 0.002, -0.012, 0.97, 192.0, 0.0, 0.0, 0.0, 0.0, 0.0, 0.0, 0.0, 0.0, 0.0, 1.686054109403487E9, 0.0, 2023-06-06 14:21:49.403
56.0, 187500.0, -187500.02235174447, 187500.0, -11730.79898724544, 20435.216478731214, 7375.9192080401435, 2038.5685013018253, -2118.677153429646, 0.002, -0.012, 0.97, 192.0, 0.0, 0.0, 0.0, 0.0, 0.0, 0.0, 0.0, 0.0, 0.0, 1.686054109408477E9, 0.0, 2023-06-06 14:21:49.408
57.0, 187500.0, -187500.02235174447, 187500.0, -11740.164368172213, 20507.546723788586, 7456.050211912419, 2145.2310258425505, -2064.8541527812663, 0.002, -0.012, 0.97, 192.0, 0.0, 0.0, 0.0, 0.0, 0.0, 0.0, 0.0, 0.0, 0.0, 1.686054109412488E9, 0.0, 2023-06-06 14:21:49.412
58.0, 187500.0, -187500.02235174447, 187500.0, -11736.006943703527, 20524.98108446373, 7487.588523338858, 2189.599238586335, -2099.097025286797, 0.002, -0.012, 0.97, 192.0, 0.0, 0.0, 0.0, 0.0, 0.0, 0.0, 0.0, 0.0, 0.0, 1.686054109416653E9, 0.0, 2023-06-06 14:21:49.416
59.0, 187500.0, -187500.02235174447, 187500.0, -11737.146882670748, 20412.685920320266, 7459.090049158341, 2170.5555523104135, -2346.0838015179397, 0.002, -0.012, 0.97, 192.0, 0.0, 0.0, 0.0, 0.0, 0.0, 0.0, 0.0, 0.0, 0.0, 1.686054109419596E9, 0.0, 2023-06-06 14:21:49.419
60.0, 187500.0, -187500.02235174447, 187500.0, -11729.837862233862, 20326.40818672278, 7401.579010674836, 2088.390539692705, -2345.636766628834, 0.002, -0.012, 0.97, 192.0, 0.0, 0.0, 0.0, 0.0, 0.0, 0.0, 0.0, 0.0, 0.0, 1.686054109423594E9, 0.0, 2023-06-06 14:21:49.423
61.0, 187500.0, -187500.02235174447, 187500.0, -11722.618248774797, 20305.844581823898, 7390.403138447183, 2063.7589173029564, -2260.0072336205526, 0.002, -0.012, 0.97, 192.0, 0.0, 0.0, 0.0, 0.0, 0.0, 0.0, 0.0, 0.0, 0.0, 1.686054109427603E9, 0.0, 2023-06-06 14:21:49.427
62.0, 187500.0, -187500.02235174447, 187500.0, -11719.08667315086, 20401.353585881425, 7474.982139466065, 2172.1648779111956, -2144.8510461868104, 0.002, -0.012, 0.97, 192.0, 0.0, 0.0, 0.0, 0.0, 0.0, 0.0, 0.0, 0.0, 0.0, 1.68605410943164E9, 0.0, 2023-06-06 14:21:49.431
63.0, 187500.0, -187500.02235174447, 187500.0, -11721.075978407382, 20450.639182405375, 7501.223087456595, 2211.123968496796, -2100.1028537872858, 0.002, -0.012, 0.97, 192.0, 0.0, 0.0, 0.0, 0.0, 0.0, 0.0, 0.0, 0.0, 0.0, 1.686054109435619E9, 0.0, 2023-06-06 14:21:49.435
64.0, 187500.0, -187500.02235174447, 187500.0, -11737.504510582032, 20451.75676962814, 7475.272712143983, 2181.9996454715306, -2108.9764963360426, 0.002, -0.012, 0.97, 192.0, 0.0, 0.0, 255.0, 176.0, 30.0, 128.0, 0.0, 0.0, 0.0, 1.686054109440602E9, 0.0, 2023-06-06 14:21:49.440
65.0, 187500.0, -187500.02235174447, 187500.0, -11733.45884483562, 20418.832650045475, 7413.760711402979, 2091.6538943831797, -2078.511068643459, 0.002, -0.012, 0.97, 192.0, 0.0, 0.0, 0.0, 0.0, 0.0, 0.0, 0.0, 0.0, 0.0, 1.686054109444605E9, 0.0, 2023-06-06 14:21:49.444
66.0, 187500.0, -187500.02235174447, 187500.0, -11717.544402783442, 20493.375717803923, 7400.617885663258, 2059.221513178529, -1877.9041621570782, 0.002, -0.012, 0.97, 192.0, 0.0, 0.0, 0.0, 0.0, 0.0, 0.0, 0.0, 0.0, 0.0, 1.686054109447612E9, 0.0, 2023-06-06 14:21:49.447
67.0, 187500.0, -187500.02235174447, 187500.0, -11715.778614971474, 20571.6068233975, 7477.5302383339695, 2158.7538312380116, -1901.0605694127762, 0.002, -0.012, 0.97, 192.0, 0.0, 0.0, 0.0, 0.0, 0.0, 0.0, 0.0, 0.0, 0.0, 1.686054109451743E9, 0.0, 2023-06-06 14:21:49.451
68.0, 187500.0, -187500.02235174447, 187500.0, -11715.488042293555, 20587.63302417195, 7504.128814235785, 2195.142471211251, -1959.845657330234, 0.002, -0.012, 0.97, 192.0, 0.0, 0.0, 0.0, 0.0, 0.0, 0.0, 0.0, 0.0, 0.0, 1.686054109455725E9, 0.0, 2023-06-06 14:21:49.455
69.0, 187500.0, -187500.02235174447, 187500.0, -11735.582260558875, 20580.793390368628, 7483.542857592447, 2177.484593091559, -2007.5442799978591, 0.002, -0.012, 0.97, 192.0, 0.0, 0.0, 0.0, 0.0, 0.0, 0.0, 0.0, 0.0, 0.0, 1.686054109459729E9, 0.0, 2023-06-06 14:21:49.459
70.0, 187500.0, -187500.02235174447, 187500.0, -11736.185757659168, 20501.2882353411, 7413.6042491917915, 2083.2049349790736, -2083.4061006791712, 0.002, -0.012, 0.97, 192.0, 0.0, 0.0, 0.0, 0.0, 0.0, 0.0, 0.0, 0.0, 0.0, 1.686054109463798E9, 0.0, 2023-06-06 14:21:49.463
71.0, 187500.0, -187500.02235174447, 187500.0, -11718.952562684128, 20446.749978870153, 7391.140746014207, 2046.5704258168253, -2107.0765980573415, 0.002, -0.012, 0.97, 192.0, 0.0, 0.0, 0.0, 0.0, 0.0, 0.0, 0.0, 0.0, 0.0, 1.68605410946876E9, 0.0, 2023-06-06 14:21:49.468
72.0, 187500.0, -187500.02235174447, 187500.0, -11712.850536447828, 20491.05113638057, 7472.724613276078, 2152.8753224462657, -2120.9123278751767, 0.002, -0.012, 0.97, 192.0, 0.0, 0.0, 0.0, 0.0, 0.0, 0.0, 0.0, 0.0, 0.0, 1.686054109471714E9, 0.0, 2023-06-06 14:21:49.471
73.0, 187500.0, -187500.02235174447, 187500.0, -11710.391844557744, 20413.021196487094, 7495.344578664849, 2187.542878096447, -2318.7476180490994, 0.002, -0.012, 0.97, 192.0, 0.0, 0.0, 0.0, 0.0, 0.0, 0.0, 0.0, 0.0, 0.0, 1.686054109475727E9, 0.0, 2023-06-06 14:21:49.475
74.0, 187500.0, -187500.02235174447, 187500.0, -11740.052609449936, 20410.60720808592, 7462.711031760101, 2160.8101917278996, -2255.8945126407757, 0.002, -0.01, 0.972, 192.0, 0.0, 16.0, 255.0, 176.0, 30.0, 96.0, 0.0, 0.0, 0.0, 1.686054109479738E9, 0.0, 2023-06-06 14:21:49.479
75.0, 187500.0, -187500.02235174447, 187500.0, -11734.397618102745, 20350.07868410095, 7397.779214117434, 2061.8813707687104, -2241.8352653783877, 0.002, -0.01, 0.972, 192.0, 0.0, 0.0, 0.0, 0.0, 0.0, 0.0, 0.0, 0.0, 0.0, 1.686054109483766E9, 0.0, 2023-06-06 14:21:49.483
76.0, 187500.0, -187500.02235174447, 187500.0, -11712.001170158526, 20320.037939553018, 7395.186411760618, 2046.995108961476, -2199.277543935483, 0.002, -0.01, 0.972, 192.0, 0.0, 0.0, 0.0, 0.0, 0.0, 0.0, 0.0, 0.0, 0.0, 1.686054109487722E9, 0.0, 2023-06-06 14:21:49.487
77.0, 187500.0, -187500.02235174447, 187500.0, -11714.75043472653, 20401.152420181326, 7482.469973858592, 2160.2066946276063, -2106.383693979227, 0.002, -0.01, 0.972, 192.0, 0.0, 0.0, 0.0, 0.0, 0.0, 0.0, 0.0, 0.0, 0.0, 1.686054109491844E9, 0.0, 2023-06-06 14:21:49.491
78.0, 187500.0, -187500.02235174447, 187500.0, -11715.644504504742, 20442.65960963483, 7511.7731108395, 2192.504965365525, -2078.511068643459, 0.002, -0.01, 0.972, 192.0, 0.0, 0.0, 0.0, 0.0, 0.0, 0.0, 0.0, 0.0, 0.0, 1.686054109497057E9, 0.0, 2023-06-06 14:21:49.497
79.0, 187500.0, -187500.02235174447, 187500.0, -11733.212975646613, 20490.469991024733, 7480.592427324346, 2172.276636633472, -2009.3771230431944, 0.002, -0.01, 0.972, 192.0, 0.0, 0.0, 0.0, 0.0, 0.0, 0.0, 0.0, 0.0, 0.0, 1.68605410949985E9, 0.0, 2023-06-06 14:21:49.499
80.0, 187500.0, -187500.02235174447, 187500.0, -11723.065283663904, 20535.64286656891, 7416.487624226525, 2075.5606383753584, -1852.6913944114917, 0.002, -0.01, 0.972, 192.0, 0.0, 0.0, 0.0, 0.0, 0.0, 0.0, 0.0, 0.0, 0.0, 1.686054109502852E9, 0.0, 2023-06-06 14:21:49.502
81.0, 187500.0, -187500.02235174447, 187500.0, -11703.21693458759, 20485.016165377638, 7397.779214117434, 2036.6238995342137, -1948.356860680206, 0.002, -0.01, 0.972, 192.0, 0.0, 0.0, 0.0, 0.0, 0.0, 0.0, 0.0, 0.0, 0.0, 1.686054109507869E9, 0.0, 2023-06-06 14:21:49.507
82.0, 187500.0, -187500.02235174447, 187500.0, -11704.759204955008, 20545.365875406966, 7477.172610422685, 2140.6936217181233, -1955.643529372636, 0.002, -0.01, 0.972, 192.0, 0.0, 0.0, 0.0, 0.0, 0.0, 0.0, 0.0, 0.0, 0.0, 1.686054109511885E9, 0.0, 2023-06-06 14:21:49.511
83.0, 187500.0, -187500.02235174447, 187500.0, -11709.162498612703, 20562.5543668931, 7500.351369422838, 2169.0356336874524, -1981.683311663069, 0.002, -0.01, 0.972, 192.0, 0.0, 0.0, 0.0, 0.0, 0.0, 0.0, 0.0, 0.0, 0.0, 1.68605410951586E9, 0.0, 2023-06-06 14:21:49.515
84.0, 187500.0, -187500.02235174447, 187500.0, -11728.183833144169, 20551.892584787918, 7472.612854553802, 2145.700412476112, -2018.3625243142278, 0.004, -0.012, 0.968, 192.0, 0.0, 32.0, 255.0, 160.0, 30.0, 64.0, 0.0, 0.0, 0.0, 1.686054109519844E9, 0.0, 2023-06-06 14:21:49.519
85.0, 187500.0, -187500.02235174447, 187500.0, -11723.020580174993, 20465.99483084617, 7402.830708364333, 2044.4246583491158, -2090.0892722713083, 0.004, -0.012, 0.968, 192.0, 0.0, 0.0, 0.0, 0.0, 0.0, 0.0, 0.0, 0.0, 0.0, 1.686054109524859E9, 0.0, 2023-06-06 14:21:49.524
86.0, 187500.0, -187500.02235174447, 187500.0, -11715.868021949294, 20394.245731144638, 7384.569333144347, 2007.8348526757782, -2148.6508427442127, 0.004, -0.012, 0.968, 192.0, 0.0, 0.0, 0.0, 0.0, 0.0, 0.0, 0.0, 0.0, 0.0, 1.686054109527981E9, 0.0, 2023-06-06 14:21:49.527
87.0, 187500.0, -187500.02235174447, 187500.0, -11718.08084465037, 20361.969812151172, 7461.19111313714, 2121.806397653389, -2305.2918678870046, 0.004, -0.012, 0.968, 192.0, 0.0, 0.0, 0.0, 0.0, 0.0, 0.0, 0.0, 0.0, 0.0, 1.686054109530967E9, 0.0, 2023-06-06 14:21:49.530
88.0, 187500.0, -187500.02235174447, 187500.0, -11729.077902922381, 20386.869655474384, 7492.572962352391, 2172.1648779111956, -2246.506779969547, 0.004, -0.012, 0.968, 192.0, 0.0, 0.0, 0.0, 0.0, 0.0, 0.0, 0.0, 0.0, 0.0, 1.686054109536006E9, 0.0, 2023-06-06 14:21:49.536
89.0, 187500.0, -187500.02235174447, 187500.0, -11753.441304378666, 20419.682016334777, 7470.690604530645, 2155.7810492254557, -2169.057985431908, 0.004, -0.012, 0.968, 192.0, 0.0, 0.0, 0.0, 0.0, 0.0, 0.0, 0.0, 0.0, 0.0, 1.686054109539967E9, 0.0, 2023-06-06 14:21:49.539
90.0, 187500.0, -187500.02235174447, 187500.0, -11752.211958433623, 20353.342038791423, 7405.9152490991655, 2063.7142138140457, -2184.637151317257, 0.004, -0.012, 0.968, 192.0, 0.0, 0.0, 0.0, 0.0, 0.0, 0.0, 0.0, 0.0, 0.0, 1.686054109543991E9, 0.0, 2023-06-06 14:21:49.543
91.0, 187500.0, -187500.02235174447, 187500.0, -11737.884490237771, 20310.873724326342, 7391.252504736484, 2033.5393587993813, -2173.95301746762, 0.004, -0.012, 0.968, 192.0, 0.0, 0.0, 0.0, 0.0, 0.0, 0.0, 0.0, 0.0, 0.0, 1.68605410954796E9, 0.0, 2023-06-06 14:21:49.547
92.0, 187500.0, -187500.02235174447, 187500.0, -11723.065283663904, 20402.89585624884, 7474.5351045769585, 2145.275729331461, -2091.162156005163, 0.004, -0.012, 0.968, 192.0, 0.0, 0.0, 0.0, 0.0, 0.0, 0.0, 0.0, 0.0, 0.0, 1.686054109551989E9, 0.0, 2023-06-06 14:21:49.551
93.0, 187500.0, -187500.02235174447, 187500.0, -11727.60268778833, 20462.373848244413, 7494.495212375547, 2177.1269651802736, -2036.4674373230264, 0.004, -0.012, 0.968, 192.0, 0.0, 0.0, 0.0, 0.0, 0.0, 0.0, 0.0, 0.0, 0.0, 1.686054109555985E9, 0.0, 2023-06-06 14:21:49.555
94.0, 187500.0, -187500.02235174447, 187500.0, -11748.792141531962, 20571.83034084205, 7466.533180061959, 2142.370002552271, -1838.3415744711847, 0.004, -0.012, 0.968, 192.0, 0.0, 0.0, 0.0, 0.0, 0.0, 0.0, 0.0, 0.0, 0.0, 1.686054109558962E9, 0.0, 2023-06-06 14:21:49.558
95.0, 187500.0, -187500.02235174447, 187500.0, -11733.481196580076, 20531.68660780032, 7400.081443796331, 2046.3916118611828, -1929.5590435932927, 0.002, -0.014, 0.964, 192.0, 0.0, 16.0, 255.0, 144.0, 30.0, 32.0, 0.0, 0.0, 0.0, 1.686054109562988E9, 0.0, 2023-06-06 14:21:49.562
96.0, 187500.0, -187500.02235174447, 187500.0, -11710.682417235663, 20468.341764013978, 7383.362338943761, 2018.8766144366998, -2024.509254039437, 0.002, -0.014, 0.964, 192.0, 0.0, 0.0, 0.0, 0.0, 0.0, 0.0, 0.0, 0.0, 0.0, 1.686054109568131E9, 0.0, 2023-06-06 14:21:49.568
97.0, 187500.0, -187500.02235174447, 187500.0, -11701.428795031166, 20533.608857823474, 7464.633281783257, 2131.1047233467966, -1997.8883263931664, 0.002, -0.014, 0.964, 192.0, 0.0, 0.0, 0.0, 0.0, 0.0, 0.0, 0.0, 0.0, 0.0, 1.686054109572118E9, 0.0, 2023-06-06 14:21:49.572
98.0, 187500.0, -187500.02235174447, 187500.0, -11707.821393945384, 20563.850768071505, 7492.595314096847, 2174.28829363445, -2007.1195968532083, 0.002, -0.014, 0.964, 192.0, 0.0, 0.0, 0.0, 0.0, 0.0, 0.0, 0.0, 0.0, 0.0, 1.686054109576134E9, 0.0, 2023-06-06 14:21:49.576
99.0, 187500.0, -187500.02235174447, 187500.0, -11737.258641393024, 20559.894509302918, 7471.204694653117, 2157.993871926531, -2037.9426524570767, 0.002, -0.014, 0.964, 192.0, 0.0, 0.0, 0.0, 0.0, 0.0, 0.0, 0.0, 0.0, 0.0, 1.686054109580085E9, 0.0, 2023-06-06 14:21:49.580
100.0, 187500.0, -187500.02235174447, 187500.0, -11728.720275011096, 20461.43507497729, 7400.617885663258, 2060.9202457571323, -2147.0638688878857, 0.002, -0.014, 0.964, 192.0, 0.0, 0.0, 0.0, 0.0, 0.0, 0.0, 0.0, 0.0, 0.0, 1.686054109583097E9, 0.0, 2023-06-06 14:21:49.583
101.0, 187500.0, -187500.02235174447, 187500.0, -11702.12169910928, 20292.992328762095, 7373.5722748723365, 2027.3255738408059, -2391.1002148509283, 0.002, -0.014, 0.964, 192.0, 0.0, 0.0, 0.0, 0.0, 0.0, 0.0, 0.0, 0.0, 0.0, 1.686054109587116E9, 0.0, 2023-06-06 14:21:49.587
102.0, 187500.0, -187500.02235174447, 187500.0, -11699.50654500801, 20342.926125875252, 7454.507941545003, 2140.8724356737657, -2286.1364228888065, 0.002, -0.014, 0.964, 192.0, 0.0, 0.0, 0.0, 0.0, 0.0, 0.0, 0.0, 0.0, 0.0, 1.686054109591119E9, 0.0, 2023-06-06 14:21:49.591
103.0, 187500.0, -187500.02235174447, 187500.0, -11706.994379400538, 20407.32150165099, 7487.253247172028, 2186.022959473486, -2178.1327936807625, 0.002, -0.014, 0.964, 192.0, 0.0, 0.0, 0.0, 0.0, 0.0, 0.0, 0.0, 0.0, 0.0, 1.686054109595101E9, 0.0, 2023-06-06 14:21:49.595
104.0, 187500.0, -187500.02235174447, 187500.0, -11730.620173289797, 20427.013388516116, 7463.71686026059, 2168.9685784540866, -2153.858799202299, 0.002, -0.014, 0.964, 192.0, 0.0, 0.0, 0.0, 0.0, 0.0, 0.0, 0.0, 0.0, 0.0, 1.686054109600134E9, 0.0, 2023-06-06 14:21:49.600
105.0, 187500.0, -187500.02235174447, 187500.0, -11735.626964047786, 20361.56748075098, 7396.214592005563, 2075.0465482528866, -2193.3096281659164, 0.002, -0.006, 0.966, 192.0, 0.0, 16.0, 255.0, 208.0, 30.0, 48.0, 0.0, 0.0, 0.0, 1.686054109604236E9, 0.0, 2023-06-06 14:21:49.604
106.0, 187500.0, -187500.02235174447, 187500.0, -11710.347141068834, 20322.720148887653, 7380.9707022870425, 2040.2672338804286, -2191.610895587313, 0.002, -0.006, 0.966, 192.0, 0.0, 0.0, 0.0, 0.0, 0.0, 0.0, 0.0, 0.0, 0.0, 1.686054109608228E9, 0.0, 2023-06-06 14:21:49.608
107.0, 187500.0, -187500.02235174447, 187500.0, -11702.948713654127, 20425.80639431553, 7467.203732395617, 2152.0706596458745, -2070.129164472719, 0.002, -0.006, 0.966, 192.0, 0.0, 0.0, 0.0, 0.0, 0.0, 0.0, 0.0, 0.0, 0.0, 1.68605410961123E9, 0.0, 2023-06-06 14:21:49.611
108.0, 187500.0, -187500.02235174447, 187500.0, -11704.513335765998, 20573.529073420654, 7497.669160088201, 2186.1347181957626, -1827.0539435212545, 0.002, -0.006, 0.966, 192.0, 0.0, 0.0, 0.0, 0.0, 0.0, 0.0, 0.0, 0.0, 0.0, 1.686054109615234E9, 0.0, 2023-06-06 14:21:49.615
109.0, 187500.0, -187500.02235174447, 187500.0, -11713.454033548122, 20599.948835366828, 7478.200790667629, 2166.6216452862795, -1874.7302144444245, 0.002, -0.006, 0.966, 192.0, 0.0, 0.0, 0.0, 0.0, 0.0, 0.0, 0.0, 0.0, 0.0, 1.686054109619219E9, 0.0, 2023-06-06 14:21:49.619
110.0, 187500.0, -187500.02235174447, 187500.0, -11711.487080036055, 20508.217276122246, 7407.904554355688, 2075.873562797733, -2018.2507655919512, 0.002, -0.006, 0.966, 192.0, 0.0, 0.0, 0.0, 0.0, 0.0, 0.0, 0.0, 0.0, 0.0, 1.686054109623224E9, 0.0, 2023-06-06 14:21:49.623
111.0, 187500.0, -187500.02235174447, 187500.0, -11699.21597233009, 20441.318504967512, 7382.490620910004, 2034.9922221889763, -2076.9464465315878, 0.002, -0.006, 0.966, 192.0, 0.0, 0.0, 0.0, 0.0, 0.0, 0.0, 0.0, 0.0, 0.0, 1.686054109628395E9, 0.0, 2023-06-06 14:21:49.628
112.0, 187500.0, -187500.02235174447, 187500.0, -11697.60664672931, 20513.961674447262, 7464.409764338704, 2144.2251973420616, -2028.644326763669, 0.002, -0.006, 0.966, 192.0, 0.0, 0.0, 0.0, 0.0, 0.0, 0.0, 0.0, 0.0, 0.0, 1.68605410963236E9, 0.0, 2023-06-06 14:21:49.632
113.0, 187500.0, -187500.02235174447, 187500.0, -11698.545419996432, 20553.323096433058, 7494.33875016436, 2184.413633872704, -2027.102056396253, 0.002, -0.006, 0.966, 192.0, 0.0, 0.0, 0.0, 0.0, 0.0, 0.0, 0.0, 0.0, 0.0, 1.686054109635406E9, 0.0, 2023-06-06 14:21:49.635
114.0, 187500.0, -187500.02235174447, 187500.0, -11710.950638169126, 20540.60495383799, 7474.043366198942, 2168.9462267096314, -2090.0445687823976, 0.002, -0.006, 0.966, 192.0, 0.0, 0.0, 0.0, 0.0, 0.0, 0.0, 0.0, 0.0, 0.0, 1.686054109639327E9, 0.0, 2023-06-06 14:21:49.639
115.0, 187500.0, -187500.02235174447, 187500.0, -11708.201373601125, 20362.394495295823, 7402.048397308397, 2087.4741181700374, -2366.110964549895, 0.002, -0.004, 0.97, 192.0, 0.0, 16.0, 255.0, 224.0, 30.0, 80.0, 0.0, 0.0, 0.0, 1.686054109643369E9, 0.0, 2023-06-06 14:21:49.643
116.0, 187500.0, -187500.02235174447, 187500.0, -11704.088652621347, 20284.85629378036, 7376.701519096079, 2054.0806119538083, -2343.915682305775, 0.002, -0.004, 0.97, 192.0, 0.0, 0.0, 0.0, 0.0, 0.0, 0.0, 0.0, 0.0, 0.0, 1.686054109647391E9, 0.0, 2023-06-06 14:21:49.647
117.0, 187500.0, -187500.02235174447, 187500.0, -11710.078920135371, 20372.005745411607, 7457.681889257657, 2155.8481044588216, -2186.313532151405, 0.002, -0.004, 0.97, 192.0, 0.0, 0.0, 0.0, 0.0, 0.0, 0.0, 0.0, 0.0, 0.0, 1.686054109651342E9, 0.0, 2023-06-06 14:21:49.651
118.0, 187500.0, -187500.02235174447, 187500.0, -11708.760167212507, 20420.95606576873, 7488.728462306079, 2194.0695874773965, -2122.4322464981374, 0.002, -0.004, 0.97, 192.0, 0.0, 0.0, 0.0, 0.0, 0.0, 0.0, 0.0, 0.0, 0.0, 1.686054109655363E9, 0.0, 2023-06-06 14:21:49.655
119.0, 187500.0, -187500.02235174447, 187500.0, -11715.868021949294, 20433.562449641522, 7471.8305434978665, 2177.261075647006, -2109.13295854723, 0.002, -0.004, 0.97, 192.0, 0.0, 0.0, 0.0, 0.0, 0.0, 0.0, 0.0, 0.0, 0.0, 1.686054109660354E9, 0.0, 2023-06-06 14:21:49.660
120.0, 187500.0, -187500.02235174447, 187500.0, -11709.497774779533, 20369.725867477166, 7407.9716095890535, 2084.5907431353025, -2147.9802904105536, 0.002, -0.004, 0.97, 192.0, 0.0, 0.0, 0.0, 0.0, 0.0, 0.0, 0.0, 0.0, 0.0, 1.686054109663357E9, 0.0, 2023-06-06 14:21:49.663
121.0, 187500.0, -187500.02235174447, 187500.0, -11698.925399652171, 20340.266268285068, 7384.7257953555345, 2042.4353530925935, -2116.2408132840173, 0.002, -0.004, 0.97, 192.0, 0.0, 0.0, 0.0, 0.0, 0.0, 0.0, 0.0, 0.0, 0.0, 1.68605410966739E9, 0.0, 2023-06-06 14:21:49.667
122.0, 187500.0, -187500.02235174447, 187500.0, -11704.066300876893, 20532.33480838952, 7479.8771715017765, 2151.958900923598, -1819.3872951730843, 0.002, -0.004, 0.97, 192.0, 0.0, 0.0, 0.0, 0.0, 0.0, 0.0, 0.0, 0.0, 0.0, 1.686054109671369E9, 0.0, 2023-06-06 14:21:49.671
123.0, 187500.0, -187500.02235174447, 187500.0, -11696.801983928917, 20597.758364410205, 7511.527241650491, 2191.4991368650362, -1841.64963265057, 0.002, -0.004, 0.97, 192.0, 0.0, 0.0, 0.0, 0.0, 0.0, 0.0, 0.0, 0.0, 0.0, 1.686054109675353E9, 0.0, 2023-06-06 14:21:49.675
124.0, 187500.0, -187500.02235174447, 187500.0, -11709.207202101614, 20589.622329428475, 7490.762471051511, 2182.67019780519, -1943.7971048113234, 0.002, -0.004, 0.97, 192.0, 0.0, 0.0, 0.0, 0.0, 0.0, 0.0, 0.0, 0.0, 0.0, 1.686054109679358E9, 0.0, 2023-06-06 14:21:49.679
125.0, 187500.0, -187500.02235174447, 187500.0, -11705.720329966585, 20504.842162709494, 7417.851080638299, 2080.3439116887944, -2050.1467049296743, 0.004, -0.008, 0.97, 192.0, 0.0, 32.0, 255.0, 192.0, 30.0, 80.0, 0.0, 0.0, 0.0, 1.686054109683479E9, 0.0, 2023-06-06 14:21:49.683
126.0, 187500.0, -187500.02235174447, 187500.0, -11693.248056560524, 20440.33502821148, 7395.074653038341, 2044.4917135824817, -2088.770519348445, 0.004, -0.008, 0.97, 192.0, 0.0, 0.0, 0.0, 0.0, 0.0, 0.0, 0.0, 0.0, 0.0, 1.686054109690769E9, 0.0, 2023-06-06 14:21:49.690
127.0, 187500.0, -187500.02235174447, 187500.0, -11691.169344326181, 20509.267808111646, 7476.502058089025, 2155.9822149255533, -2032.2653093654287, 0.004, -0.008, 0.97, 192.0, 0.0, 0.0, 0.0, 0.0, 0.0, 0.0, 0.0, 0.0, 0.0, 1.686054109691513E9, 0.0, 2023-06-06 14:21:49.691
128.0, 187500.0, -187500.02235174447, 187500.0, -11690.78936467044, 20533.452395612287, 7507.258058459528, 2198.763453813011, -2058.640367822691, 0.004, -0.008, 0.97, 192.0, 0.0, 0.0, 0.0, 0.0, 0.0, 0.0, 0.0, 0.0, 0.0, 1.686054109695452E9, 0.0, 2023-06-06 14:21:49.695
129.0, 187500.0, -187500.02235174447, 187500.0, -11710.45889979111, 20436.155251998338, 7487.879096016776, 2187.676988563179, -2299.3910073508036, 0.004, -0.008, 0.97, 192.0, 0.0, 0.0, 0.0, 0.0, 0.0, 0.0, 0.0, 0.0, 0.0, 1.686054109699464E9, 0.0, 2023-06-06 14:21:49.699
130.0, 187500.0, -187500.02235174447, 187500.0, -11705.385053799755, 20341.383855507836, 7428.378752276749, 2096.995961307998, -2315.7748360365435, 0.004, -0.008, 0.97, 192.0, 0.0, 0.0, 0.0, 0.0, 0.0, 0.0, 0.0, 0.0, 0.0, 1.686054109703464E9, 0.0, 2023-06-06 14:21:49.703
131.0, 187500.0, -187500.02235174447, 187500.0, -11681.155762810204, 20306.090451012904, 7397.533344928425, 2050.4372776075934, -2238.6389659212787, 0.004, -0.008, 0.97, 192.0, 0.0, 0.0, 0.0, 0.0, 0.0, 0.0, 0.0, 0.0, 0.0, 1.686054109707494E9, 0.0, 2023-06-06 14:21:49.707
132.0, 187500.0, -187500.02235174447, 187500.0, -11666.045983558415, 20401.107716692415, 7476.390299366749, 2159.2008661271175, -2119.7500371635006, 0.004, -0.008, 0.97, 192.0, 0.0, 0.0, 0.0, 0.0, 0.0, 0.0, 0.0, 0.0, 0.0, 1.686054109711522E9, 0.0, 2023-06-06 14:21:49.711
133.0, 187500.0, -187500.02235174447, 187500.0, -11671.253940016502, 20450.370961471912, 7509.24736371605, 2200.372779413793, -2076.8570395537663, 0.004, -0.008, 0.97, 192.0, 0.0, 0.0, 0.0, 0.0, 0.0, 0.0, 0.0, 0.0, 0.0, 1.686054109716474E9, 0.0, 2023-06-06 14:21:49.716
134.0, 187500.0, -187500.02235174447, 187500.0, -11693.136297838248, 20462.5303104556, 7490.784822795967, 2185.5535728399245, -2072.319635429339, 0.004, -0.008, 0.97, 192.0, 0.0, 0.0, 0.0, 0.0, 0.0, 0.0, 0.0, 0.0, 0.0, 1.686054109719473E9, 0.0, 2023-06-06 14:21:49.719
135.0, 187500.0, -187500.02235174447, 187500.0, -11700.847649675328, 20413.51293486511, 7422.544946973914, 2092.257391483473, -2077.214667465051, 0.002, -0.01, 0.966, 192.0, 0.0, 16.0, 255.0, 176.0, 30.0, 48.0, 0.0, 0.0, 0.0, 1.686054109722626E9, 0.0, 2023-06-06 14:21:49.722
136.0, 187500.0, -187500.02235174447, 187500.0, -11692.510448993498, 20472.09685708247, 7401.199031019096, 2049.7220217850236, -1868.4493742524833, 0.002, -0.01, 0.966, 192.0, 0.0, 0.0, 0.0, 0.0, 0.0, 0.0, 0.0, 0.0, 0.0, 1.686054109727705E9, 0.0, 2023-06-06 14:21:49.727
137.0, 187500.0, -187500.02235174447, 187500.0, -11684.866152389784, 20566.845901828518, 7478.737232534556, 2151.534217778947, -1840.8002663612685, 0.002, -0.01, 0.966, 192.0, 0.0, 0.0, 0.0, 0.0, 0.0, 0.0, 0.0, 0.0, 0.0, 1.68605410973163E9, 0.0, 2023-06-06 14:21:49.731
138.0, 187500.0, -187500.02235174447, 187500.0, -11688.755355925006, 20576.54655892212, 7505.425215414192, 2182.893715249743, -1918.226709154452, 0.002, -0.01, 0.966, 192.0, 0.0, 0.0, 0.0, 0.0, 0.0, 0.0, 0.0, 0.0, 0.0, 1.686054109735663E9, 0.0, 2023-06-06 14:21:49.735
139.0, 187500.0, -187500.02235174447, 187500.0, -11716.091539393849, 20569.014021040683, 7487.0967849608405, 2168.432136587159, -1973.8602011037115, 0.002, -0.01, 0.966, 192.0, 0.0, 0.0, 0.0, 0.0, 0.0, 0.0, 0.0, 0.0, 0.0, 1.686054109739965E9, 0.0, 2023-06-06 14:21:49.739
140.0, 187500.0, -187500.02235174447, 187500.0, -11708.313132323401, 20490.760563702654, 7421.449711495604, 2081.550905889381, -2053.901797998166, 0.002, -0.01, 0.966, 192.0, 0.0, 0.0, 0.0, 0.0, 0.0, 0.0, 0.0, 0.0, 0.0, 1.68605410974461E9, 0.0, 2023-06-06 14:21:49.744
141.0, 187500.0, -187500.02235174447, 187500.0, -11687.21308555759, 20435.797624087052, 7402.294266497406, 2051.6219200637247, -2078.7345860880123, 0.002, -0.01, 0.966, 192.0, 0.0, 0.0, 0.0, 0.0, 0.0, 0.0, 0.0, 0.0, 0.0, 1.686054109747624E9, 0.0, 2023-06-06 14:21:49.747
142.0, 187500.0, -187500.02235174447, 187500.0, -11691.079937348359, 20499.544799273586, 7480.547723835436, 2166.420479586182, -2057.2992631553725, 0.002, -0.01, 0.966, 192.0, 0.0, 0.0, 0.0, 0.0, 0.0, 0.0, 0.0, 0.0, 0.0, 1.686054109750609E9, 0.0, 2023-06-06 14:21:49.750
143.0, 187500.0, -187500.02235174447, 187500.0, -11675.50077146301, 20417.08921397796, 7501.446604901148, 2205.290163193961, -2276.6145797508457, 0.002, -0.01, 0.966, 192.0, 0.0, 0.0, 0.0, 0.0, 0.0, 0.0, 0.0, 0.0, 0.0, 1.686054109755652E9, 0.0, 2023-06-06 14:21:49.755
144.0, 187500.0, -187500.02235174447, 187500.0, -11696.779632184462, 20394.40219335582, 7484.503982604026, 2200.059854991419, -2247.981995103597, 0.002, -0.01, 0.966, 192.0, 0.0, 0.0, 0.0, 0.0, 0.0, 0.0, 0.0, 0.0, 0.0, 1.686054109759631E9, 0.0, 2023-06-06 14:21:49.759
145.0, 187500.0, -187500.02235174447, 187500.0, -11695.684396706152, 20348.447006755712, 7420.130958572741, 2109.4011794806934, -2209.827567318388, 0.002, -0.012, 0.968, 192.0, 0.0, 16.0, 255.0, 160.0, 30.0, 64.0, 0.0, 0.0, 0.0, 1.686054109763725E9, 0.0, 2023-06-06 14:21:49.763
146.0, 187500.0, -187500.02235174447, 187500.0, -11676.797172641418, 20298.982596276117, 7395.029949549431, 2059.1097544562526, -2189.509831608514, 0.002, -0.012, 0.968, 192.0, 0.0, 0.0, 0.0, 0.0, 0.0, 0.0, 0.0, 0.0, 0.0, 1.686054109767828E9, 0.0, 2023-06-06 14:21:49.767
147.0, 187500.0, -187500.02235174447, 187500.0, -11683.457992489099, 20380.566463537987, 7473.57397956538, 2164.7217470075784, -2097.577106663836, 0.002, -0.012, 0.968, 192.0, 0.0, 0.0, 0.0, 0.0, 0.0, 0.0, 0.0, 0.0, 0.0, 1.686054109770737E9, 0.0, 2023-06-06 14:21:49.770
148.0, 187500.0, -187500.02235174447, 187500.0, -11690.4093850147, 20428.37684492789, 7501.044273500953, 2207.3241719393936, -2063.937731258599, 0.002, -0.012, 0.968, 192.0, 0.0, 0.0, 0.0, 0.0, 0.0, 0.0, 0.0, 0.0, 0.0, 1.686054109774724E9, 0.0, 2023-06-06 14:21:49.774
149.0, 187500.0, -187500.02235174447, 187500.0, -11717.253830105523, 20470.889862881882, 7486.560343093914, 2199.6128201023125, -2029.739562241979, 0.002, -0.012, 0.968, 192.0, 0.0, 0.0, 0.0, 0.0, 0.0, 0.0, 0.0, 0.0, 0.0, 1.686054109778742E9, 0.0, 2023-06-06 14:21:49.778
150.0, 187500.0, -187500.02235174447, 187500.0, -11710.83887944685, 20522.790613507106, 7423.684885941135, 2100.683999143124, -1863.84491489469, 0.002, -0.012, 0.968, 192.0, 0.0, 0.0, 0.0, 0.0, 0.0, 0.0, 0.0, 0.0, 0.0, 1.686054109782716E9, 0.0, 2023-06-06 14:21:49.782
151.0, 187500.0, -187500.02235174447, 187500.0, -11695.058547861403, 20485.30673805556, 7401.8025281193895, 2047.1515711726634, -1923.1887964235302, 0.002, -0.012, 0.968, 192.0, 0.0, 0.0, 0.0, 0.0, 0.0, 0.0, 0.0, 0.0, 0.0, 1.686054109787749E9, 0.0, 2023-06-06 14:21:49.787
152.0, 187500.0, -187500.02235174447, 187500.0, -11694.678568205663, 20530.5466688331, 7487.029729727475, 2153.18824686864, -1941.8525030437117, 0.002, -0.012, 0.968, 192.0, 0.0, 0.0, 0.0, 0.0, 0.0, 0.0, 0.0, 0.0, 0.0, 1.686054109791761E9, 0.0, 2023-06-06 14:21:49.791
153.0, 187500.0, -187500.02235174447, 187500.0, -11696.869039162284, 20568.768151851673, 7518.478634176092, 2200.059854991419, -1959.1080497632088, 0.002, -0.012, 0.968, 192.0, 0.0, 0.0, 0.0, 0.0, 0.0, 0.0, 0.0, 0.0, 0.0, 1.686054109795877E9, 0.0, 2023-06-06 14:21:49.795
154.0, 187500.0, -187500.02235174447, 187500.0, -11701.562905497898, 20574.06551528758, 7498.183250210674, 2189.9792182420756, -1991.2051548010297, 0.002, -0.012, 0.968, 192.0, 0.0, 0.0, 0.0, 0.0, 0.0, 0.0, 0.0, 0.0, 0.0, 1.686054109798876E9, 0.0, 2023-06-06 14:21:49.798
155.0, 187500.0, -187500.02235174447, 187500.0, -11701.026463630971, 20502.58463651951, 7430.658630211191, 2099.678170642635, -2058.5733125893253, -0.002, -0.01, 0.972, 192.0, 255.0, 240.0, 255.0, 176.0, 30.0, 96.0, 0.0, 0.0, 0.0, 1.686054109802833E9, 0.0, 2023-06-06 14:21:49.802
156.0, 187500.0, -187500.02235174447, 187500.0, -11691.817544915384, 20418.47502213419, 7399.522650184947, 2049.274986895917, -2132.1105518472855, -0.002, -0.01, 0.972, 192.0, 0.0, 0.0, 0.0, 0.0, 0.0, 0.0, 0.0, 0.0, 0.0, 1.686054109806858E9, 0.0, 2023-06-06 14:21:49.806
157.0, 187500.0, -187500.02235174447, 187500.0, -11695.639693217241, 20377.571329780978, 7469.483610330059, 2154.8199242138776, -2293.7807194925213, -0.002, -0.01, 0.972, 192.0, 0.0, 0.0, 0.0, 0.0, 0.0, 0.0, 0.0, 0.0, 0.0, 1.686054109810851E9, 0.0, 2023-06-06 14:21:49.810
158.0, 187500.0, -187500.02235174447, 187500.0, -11691.996358871027, 20398.671376546787, 7504.0617590024185, 2202.2279742035835, -2237.566082187424, -0.002, -0.01, 0.972, 192.0, 0.0, 0.0, 0.0, 0.0, 0.0, 0.0, 0.0, 0.0, 0.0, 1.68605410981584E9, 0.0, 2023-06-06 14:21:49.815
159.0, 187500.0, -187500.02235174447, 187500.0, -11703.731024710063, 20433.4730426637, 7491.231857685073, 2193.9801804995755, -2156.5633602813914, -0.002, -0.01, 0.972, 192.0, 0.0, 0.0, 0.0, 0.0, 0.0, 0.0, 0.0, 0.0, 0.0, 1.686054109819854E9, 0.0, 2023-06-06 14:21:49.819
160.0, 187500.0, -187500.02235174447, 187500.0, -11695.907914150706, 20373.41390531229, 7424.221327808062, 2094.492565929004, -2174.1765349121733, -0.002, -0.01, 0.972, 192.0, 0.0, 0.0, 0.0, 0.0, 0.0, 0.0, 0.0, 0.0, 0.0, 1.686054109823858E9, 0.0, 2023-06-06 14:21:49.823
161.0, 187500.0, -187500.02235174447, 187500.0, -11685.313187278889, 20326.989332078618, 7403.300094997895, 2052.963024731043, -2162.3971655842265, -0.002, -0.01, 0.972, 192.0, 0.0, 0.0, 0.0, 0.0, 0.0, 0.0, 0.0, 0.0, 0.0, 1.686054109826869E9, 0.0, 2023-06-06 14:21:49.826
162.0, 187500.0, -187500.02235174447, 187500.0, -11702.211106087101, 20403.544056838044, 7476.770279022489, 2155.6916422476343, -2083.4955076569927, -0.002, -0.01, 0.972, 192.0, 0.0, 0.0, 0.0, 0.0, 0.0, 0.0, 0.0, 0.0, 0.0, 1.686054109830946E9, 0.0, 2023-06-06 14:21:49.830
163.0, 187500.0, -187500.02235174447, 187500.0, -11704.848611932828, 20464.832540134496, 7509.8732125607985, 2199.992799758053, -2019.2789458368954, -0.002, -0.01, 0.972, 192.0, 0.0, 0.0, 0.0, 0.0, 0.0, 0.0, 0.0, 0.0, 0.0, 1.686054109834829E9, 0.0, 2023-06-06 14:21:49.834
164.0, 187500.0, -187500.02235174447, 187500.0, -11714.012827159504, 20600.731146422764, 7506.363988681315, 2198.092901479352, -1795.8062047727353, -0.002, -0.01, 0.972, 192.0, 0.0, 0.0, 0.0, 0.0, 0.0, 0.0, 0.0, 0.0, 0.0, 1.68605410983902E9, 0.0, 2023-06-06 14:21:49.839
165.0, 187500.0, -187500.02235174447, 187500.0, -11695.147954839225, 20560.475654658756, 7439.8451971823215, 2101.1757375211405, -1889.5941245072038, 0.002, -0.012, 0.972, 192.0, 0.0, 16.0, 255.0, 160.0, 30.0, 96.0, 0.0, 0.0, 0.0, 1.68605410984398E9, 0.0, 2023-06-06 14:21:49.843
166.0, 187500.0, -187500.02235174447, 187500.0, -11679.032347086948, 20483.317432799035, 7414.94535385911, 2058.5509608448697, -1993.0156461019096, 0.002, -0.012, 0.972, 192.0, 0.0, 0.0, 0.0, 0.0, 0.0, 0.0, 0.0, 0.0, 0.0, 1.68605410984801E9, 0.0, 2023-06-06 14:21:49.848
167.0, 187500.0, -187500.02235174447, 187500.0, -11678.87588487576, 20543.533032361633, 7494.718729820101, 2167.538066808947, -1963.287825976351, 0.002, -0.012, 0.972, 192.0, 0.0, 0.0, 0.0, 0.0, 0.0, 0.0, 0.0, 0.0, 0.0, 1.686054109851975E9, 0.0, 2023-06-06 14:21:49.851
168.0, 187500.0, -187500.02235174447, 187500.0, -11678.853533131307, 20575.808951355095, 7519.864442332321, 2210.498119652047, -1967.3111399783065, 0.002, -0.012, 0.972, 192.0, 0.0, 0.0, 0.0, 0.0, 0.0, 0.0, 0.0, 0.0, 0.0, 1.686054109854973E9, 0.0, 2023-06-06 14:21:49.854
169.0, 187500.0, -187500.02235174447, 187500.0, -11694.455050761111, 20584.97316658177, 7506.296933447949, 2204.5525556269354, -1988.67940767758, 0.002, -0.012, 0.972, 192.0, 0.0, 0.0, 0.0, 0.0, 0.0, 0.0, 0.0, 0.0, 0.0, 1.686054109858962E9, 0.0, 2023-06-06 14:21:49.858
170.0, 187500.0, -187500.02235174447, 187500.0, -11691.974007126571, 20493.86745618194, 7434.0337436239415, 2110.138787047719, -2094.157289762174, 0.002, -0.012, 0.972, 192.0, 0.0, 0.0, 0.0, 0.0, 0.0, 0.0, 0.0, 0.0, 0.0, 1.686054109862983E9, 0.0, 2023-06-06 14:21:49.862
171.0, 187500.0, -187500.02235174447, 187500.0, -11673.600873184309, 20318.182744763228, 7397.913324584166, 2062.93190275811, -2338.9982985256074, 0.002, -0.012, 0.972, 192.0, 0.0, 0.0, 0.0, 0.0, 0.0, 0.0, 0.0, 0.0, 0.0, 1.686054109866966E9, 0.0, 2023-06-06 14:21:49.866
172.0, 187500.0, -187500.02235174447, 187500.0, -11680.21698954308, 20363.512082518588, 7475.183305166162, 2164.900560963221, -2232.2016635181503, 0.002, -0.012, 0.972, 192.0, 0.0, 0.0, 0.0, 0.0, 0.0, 0.0, 0.0, 0.0, 0.0, 1.686054109870965E9, 0.0, 2023-06-06 14:21:49.870
173.0, 187500.0, -187500.02235174447, 187500.0, -11693.516277493987, 20420.307865179526, 7501.558363623424, 2205.24545970505, -2128.6013279678023, 0.002, -0.012, 0.972, 192.0, 0.0, 0.0, 0.0, 0.0, 0.0, 0.0, 0.0, 0.0, 0.0, 1.686054109875088E9, 0.0, 2023-06-06 14:21:49.875
174.0, 187500.0, -187500.02235174447, 187500.0, -11713.901068437228, 20447.956973070737, 7491.09774721834, 2197.5564596124245, -2097.9123828306656, 0.002, -0.012, 0.972, 192.0, 0.0, 0.0, 0.0, 0.0, 0.0, 0.0, 0.0, 0.0, 0.0, 1.686054109880095E9, 0.0, 2023-06-06 14:21:49.880
175.0, 187500.0, -187500.02235174447, 187500.0, -11711.2635625915, 20387.85313223042, 7424.623659208258, 2100.9075165876766, -2129.450694257104, 0.002, -0.012, 0.97, 192.0, 0.0, 16.0, 255.0, 160.0, 30.0, 80.0, 0.0, 0.0, 0.0, 1.686054109883114E9, 0.0, 2023-06-06 14:21:49.883
176.0, 187500.0, -187500.02235174447, 187500.0, -11690.722309437075, 20336.488823472122, 7391.7665948589565, 2050.124353185219, -2134.7927611819223, 0.002, -0.012, 0.97, 192.0, 0.0, 0.0, 0.0, 0.0, 0.0, 0.0, 0.0, 0.0, 0.0, 1.68605410988712E9, 0.0, 2023-06-06 14:21:49.887
177.0, 187500.0, -187500.02235174447, 187500.0, -11692.711614693597, 20423.459461147722, 7466.28731087295, 2149.52256077797, -2021.1564923711412, 0.002, -0.012, 0.97, 192.0, 0.0, 0.0, 0.0, 0.0, 0.0, 0.0, 0.0, 0.0, 0.0, 1.686054109891092E9, 0.0, 2023-06-06 14:21:49.891
178.0, 187500.0, -187500.02235174447, 187500.0, -11694.589161227843, 20569.55046290761, 7500.641942100757, 2185.061834461908, -1777.1201464080987, 0.002, -0.012, 0.97, 192.0, 0.0, 0.0, 0.0, 0.0, 0.0, 0.0, 0.0, 0.0, 0.0, 1.686054109895092E9, 0.0, 2023-06-06 14:21:49.895
179.0, 187500.0, -187500.02235174447, 187500.0, -11701.093518864336, 20616.444422774843, 7498.809099055422, 2189.7780525419776, -1808.7702165568135, 0.002, -0.012, 0.97, 192.0, 0.0, 0.0, 0.0, 0.0, 0.0, 0.0, 0.0, 0.0, 0.0, 1.686054109899124E9, 0.0, 2023-06-06 14:21:49.899
180.0, 187500.0, -187500.02235174447, 187500.0, -11704.714501466096, 20529.25026765469, 7431.128016844752, 2099.2311357535286, -1958.4598491740048, 0.002, -0.012, 0.97, 192.0, 0.0, 0.0, 0.0, 0.0, 0.0, 0.0, 0.0, 0.0, 0.0, 1.686054109904117E9, 0.0, 2023-06-06 14:21:49.904
181.0, 187500.0, -187500.02235174447, 187500.0, -11691.348158281822, 20454.886013851883, 7401.824879863844, 2044.871693238222, -2035.7298297560014, 0.002, -0.012, 0.97, 192.0, 0.0, 0.0, 0.0, 0.0, 0.0, 0.0, 0.0, 0.0, 0.0, 1.68605410990709E9, 0.0, 2023-06-06 14:21:49.907
182.0, 187500.0, -187500.02235174447, 187500.0, -11686.274312290469, 20529.004398465684, 7486.783860538467, 2152.7188602350784, -1991.003989100932, 0.002, -0.012, 0.97, 192.0, 0.0, 0.0, 0.0, 0.0, 0.0, 0.0, 0.0, 0.0, 0.0, 1.686054109910091E9, 0.0, 2023-06-06 14:21:49.910
183.0, 187500.0, -187500.02235174447, 187500.0, -11696.35494903981, 20566.600032639508, 7516.958715553131, 2202.406788159226, -1986.0195500873983, 0.002, -0.012, 0.97, 192.0, 0.0, 0.0, 0.0, 0.0, 0.0, 0.0, 0.0, 0.0, 0.0, 1.686054109915109E9, 0.0, 2023-06-06 14:21:49.915
