%OpenBCI Raw EEG Data
%Number of channels = 8
%Sample Rate = 250 Hz
%Board = OpenBCI_GUI$BoardCytonSerial
Sample Index, EXG Channel 0, EXG Channel 1, EXG Channel 2, EXG Channel 3, EXG Channel 4, EXG Channel 5, EXG Channel 6, EXG Channel 7, Accel Channel 0, Accel Channel 1, Accel Channel 2, Other, Other, Other, Other, Other, Other, Other, Analog Channel 0, Analog Channel 1, Analog Channel 2, Timestamp, Other, Timestamp (Formatted)
0.0, 0.0, 0.0, 0.0, 0.0, 0.0, 0.0, 0.0, 0.0, 0.0, 0.0, 0.0, 192.0, 0.0, 0.0, 255.0, 176.0, 30.0, 32.0, 0.0, 0.0, 0.0, 1.68612073851147E9, 0.0, 2023-06-07 08:52:18.511
1.0, 32850.6046951538, 21302.799439763956, -2512.1349110764163, -468.51491552769136, 14472.732183066868, -41.820113875879514, -3992.669760307045, -13090.343843739493, 0.0, 0.0, 0.0, 192.0, 0.0, 0.0, 0.0, 0.0, 0.0, 0.0, 0.0, 0.0, 0.0, 1.686120738528467E9, 0.0, 2023-06-07 08:52:18.528
2.0, 32803.15194167518, 21265.762599201513, -2560.3699756109686, -451.3711275304708, 14673.227330830972, 3.308058179385445, -3870.517476858792, -12954.668754895778, 0.0, 0.0, 0.0, 192.0, 0.0, 0.0, 0.0, 0.0, 0.0, 0.0, 0.0, 0.0, 0.0, 1.68612073853148E9, 0.0, 2023-06-07 08:52:18.531
3.0, 32786.63400252271, 21252.329200783875, -2575.3009409071137, -457.11552585548475, 14826.292076860915, 14.148654240209371, -3814.526356998248, -12899.906980980275, 0.0, 0.0, 0.0, 192.0, 0.0, 0.0, 0.0, 0.0, 0.0, 0.0, 0.0, 0.0, 0.0, 1.686120738535451E9, 0.0, 2023-06-07 08:52:18.535
4.0, 32822.68736632912, 21277.20669236263, -2541.1474753794046, -470.9959591622304, 14730.157223958638, -26.352706712807027, -3905.386198209071, -13004.021406653095, 0.0, 0.0, 0.0, 192.0, 0.0, 0.0, 0.0, 0.0, 0.0, 0.0, 0.0, 0.0, 0.0, 1.686120738538447E9, 0.0, 2023-06-07 08:52:18.538
5.0, 32860.7076836476, 21306.554532832448, -2507.9551348632735, -476.44978480932537, 14519.760253400835, -60.684986196158675, -4010.238231448917, -13123.089149366517, 0.0, 0.0, 0.0, 192.0, 0.0, 0.0, 0.0, 0.0, 0.0, 0.0, 0.0, 0.0, 0.0, 1.686120738541477E9, 0.0, 2023-06-07 08:52:18.541
6.0, 32846.49197417402, 21299.44667809566, -2519.175710579838, -474.23696210824994, 14487.350223940639, -54.69471868213638, -3988.0876526937072, -13096.959960098262, 0.0, 0.0, 0.0, 192.0, 0.0, 0.0, 0.0, 0.0, 0.0, 0.0, 0.0, 0.0, 0.0, 1.686120738545486E9, 0.0, 2023-06-07 08:52:18.545
7.0, 32804.425991109136, 21266.701372468637, -2560.0346994441393, -468.9843021612528, 14681.43042104607, -12.382866428240114, -3869.3775378915716, -12966.157551545806, 0.0, 0.0, 0.0, 192.0, 0.0, 0.0, 0.0, 0.0, 0.0, 0.0, 0.0, 0.0, 0.0, 1.686120738549528E9, 0.0, 2023-06-07 08:52:18.549
8.0, 32781.91778444264, 21244.617848946793, -2580.978283998762, -479.64608426643423, 14829.331914106837, -6.191433214120057, -3834.5982235191136, -12923.577478358446, 0.0, 0.0, 0.0, 192.0, 0.0, 0.0, 255.0, 144.0, 30.0, 128.0, 0.0, 0.0, 0.0, 1.686120738553601E9, 0.0, 2023-06-07 08:52:18.553
9.0, 32809.85746501177, 21262.119264855297, -2555.676109275354, -495.62758155197884, 14728.413787891126, -56.46050649410564, -3938.846759658666, -13034.06215120103, 0.0, 0.0, 0.0, 192.0, 0.0, 0.0, 0.0, 0.0, 0.0, 0.0, 0.0, 0.0, 0.0, 1.686120738557605E9, 0.0, 2023-06-07 08:52:18.557
10.0, 32853.37631146626, 21299.64784379576, -2514.2806785441257, -495.0017327072302, 14518.262686522328, -80.73450097256911, -4039.2060922629944, -13148.212510134283, 0.0, 0.0, 0.0, 192.0, 0.0, 0.0, 0.0, 0.0, 0.0, 0.0, 0.0, 0.0, 0.0, 1.686120738561604E9, 0.0, 2023-06-07 08:52:18.561
11.0, 32849.66592188668, 21300.519561829515, -2514.817120411053, -468.7384329722444, 14491.77586934279, -41.86481736479013, -3984.4443183474923, -13099.21748628825, 0.0, 0.0, 0.0, 192.0, 0.0, 0.0, 0.0, 0.0, 0.0, 0.0, 0.0, 0.0, 0.0, 1.686120738566617E9, 0.0, 2023-06-07 08:52:18.566
12.0, 32804.001307964485, 21262.49924451104, -2561.755783767198, -445.73848792773344, 14692.986272929464, 7.174909970153567, -3847.8081044922, -12955.316955484981, 0.0, 0.0, 0.0, 192.0, 0.0, 0.0, 0.0, 0.0, 0.0, 0.0, 0.0, 0.0, 0.0, 1.686120738569599E9, 0.0, 2023-06-07 08:52:18.569
13.0, 32783.370647832235, 21242.91911636819, -2584.0851764780496, -456.623787477468, 14839.904289234197, 13.478101906550158, -3808.759606928779, -12911.731053797133, 0.0, 0.0, 0.0, 192.0, 0.0, 0.0, 0.0, 0.0, 0.0, 0.0, 0.0, 0.0, 0.0, 1.686120738572612E9, 0.0, 2023-06-07 08:52:18.572
14.0, 32823.290863429414, 21273.049267893944, -2543.650870758399, -476.04745340912984, 14734.605221105245, -24.385753200740005, -3901.429939440482, -13017.745377748655, 0.0, 0.0, 0.0, 192.0, 0.0, 0.0, 0.0, 0.0, 0.0, 0.0, 0.0, 0.0, 0.0, 1.686120738577598E9, 0.0, 2023-06-07 08:52:18.577
15.0, 32861.22177377007, 21304.229951409096, -2505.719960417743, -489.3243896155822, 14513.077081808697, -55.409974504706206, -4003.5550598567797, -13133.527414027145, 0.0, 0.0, 0.0, 192.0, 0.0, 0.0, 0.0, 0.0, 0.0, 0.0, 0.0, 0.0, 0.0, 1.686120738581599E9, 0.0, 2023-06-07 08:52:18.581
16.0, 32856.39379696772, 21303.268826397518, -2512.1349110764163, -488.72089251528894, 14468.15007545353, -43.13886679874263, -3978.1858299000064, -13103.73253866822, 0.0, 0.0, 0.0, 192.0, 0.0, 0.0, 0.0, 0.0, 0.0, 0.0, 0.0, 0.0, 0.0, 1.686120738585591E9, 0.0, 2023-06-07 08:52:18.585
17.0, 32803.06253469736, 21256.956011886123, -2568.707176292798, -473.3875958189483, 14662.56554872579, -3.911555279678736, -3861.3532616321163, -12973.108944071406, 0.0, 0.0, 0.0, 192.0, 0.0, 0.0, 0.0, 0.0, 0.0, 0.0, 0.0, 0.0, 0.0, 1.686120738589728E9, 0.0, 2023-06-07 08:52:18.589
18.0, 32780.15199663067, 21236.906497109714, -2590.477775392267, -476.2262673647723, 14817.127861634239, 1.6093256007821086, -3818.9072989114884, -12927.109053982384, 0.002, -0.012, 0.978, 192.0, 0.0, 16.0, 255.0, 160.0, 30.0, 144.0, 0.0, 0.0, 0.0, 1.686120738594763E9, 0.0, 2023-06-07 08:52:18.594
19.0, 32809.87981675623, 21261.292250310453, -2555.6984610198097, -484.60817153551244, 14729.553726858347, -37.9756138295667, -3916.293849503261, -13029.927078476798, 0.002, -0.012, 0.978, 192.0, 0.0, 0.0, 0.0, 0.0, 0.0, 0.0, 0.0, 0.0, 0.0, 1.686120738597734E9, 0.0, 2023-06-07 08:52:18.597
20.0, 32853.08573878834, 21299.714899029124, -2510.391475008902, -484.00467443521916, 14516.20632603244, -71.43617527916138, -4025.5938798897128, -13144.83739672153, 0.002, -0.012, 0.978, 192.0, 0.0, 0.0, 0.0, 0.0, 0.0, 0.0, 0.0, 0.0, 0.0, 1.686120738600713E9, 0.0, 2023-06-07 08:52:18.600
21.0, 32850.202363753604, 21301.011300207534, -2513.0960360879944, -477.2097441208058, 14468.820627787189, -51.00668084701072, -3997.229516175928, -13116.16010858537, 0.002, -0.012, 0.978, 192.0, 0.0, 0.0, 0.0, 0.0, 0.0, 0.0, 0.0, 0.0, 0.0, 1.686120738605715E9, 0.0, 2023-06-07 08:52:18.605
22.0, 32797.80987475036, 21257.693619453148, -2564.683862290843, -476.8521162095209, 14650.786179397845, -1.9893052565223286, -3874.4066803940154, -12978.451010996225, 0.002, -0.012, 0.978, 192.0, 0.0, 0.0, 0.0, 0.0, 0.0, 0.0, 0.0, 0.0, 0.0, 1.686120738609736E9, 0.0, 2023-06-07 08:52:18.609
23.0, 32780.979011175514, 21242.29326752344, -2580.978283998762, -492.27481988368277, 14799.06765211435, 17.277898463952358, -3820.6730867234573, -12923.398664402803, 0.002, -0.012, 0.978, 192.0, 0.0, 0.0, 0.0, 0.0, 0.0, 0.0, 0.0, 0.0, 0.0, 1.686120738613743E9, 0.0, 2023-06-07 08:52:18.613
24.0, 32812.78554353542, 21266.16493060171, -2547.7635917381754, -512.9054800159312, 14704.273903879393, -20.31773570987412, -3914.1480820355514, -13035.20209016825, 0.002, -0.012, 0.978, 192.0, 0.0, 0.0, 0.0, 0.0, 0.0, 0.0, 0.0, 0.0, 0.0, 1.686120738617747E9, 0.0, 2023-06-07 08:52:18.617
25.0, 32857.73490163504, 21304.341710131375, -2507.195175551793, -500.7014275433335, 14502.951741570443, -50.67140468018111, -4017.2119757189726, -13145.776169988654, 0.002, -0.012, 0.978, 192.0, 0.0, 0.0, 0.0, 0.0, 0.0, 0.0, 0.0, 0.0, 0.0, 1.686120738624195E9, 0.0, 2023-06-07 08:52:18.624
26.0, 32856.080872545346, 21305.21342816513, -2510.011495353162, -482.55181104562416, 14464.685555062957, -29.571357914371244, -3987.104175937674, -13110.438062004812, 0.002, -0.012, 0.978, 192.0, 0.0, 0.0, 0.0, 0.0, 0.0, 0.0, 0.0, 0.0, 0.0, 1.686120738624712E9, 0.0, 2023-06-07 08:52:18.624
27.0, 32804.09071494231, 21264.30973581192, -2559.587664555033, -469.52074402818016, 14658.408124257103, 22.329392710851756, -3861.9344069879544, -12973.444220238236, 0.002, -0.012, 0.978, 192.0, 0.0, 0.0, 0.0, 0.0, 0.0, 0.0, 0.0, 0.0, 0.0, 1.686120738628842E9, 0.0, 2023-06-07 08:52:18.628
28.0, 32777.26862159593, 21236.97355234308, -2590.164850969893, -476.04745340912984, 14820.83825121382, 28.274956735963436, -3819.2649268227733, -12925.7008940817, 0.004, -0.014, 0.982, 192.0, 0.0, 32.0, 255.0, 144.0, 30.0, 176.0, 0.0, 0.0, 0.0, 1.686120738632856E9, 0.0, 2023-06-07 08:52:18.632
29.0, 32822.039165739916, 21272.53517777147, -2545.5507690371, -481.590686034046, 14740.193157219072, -5.565584369371458, -3902.815747596711, -13018.058302171028, 0.004, -0.014, 0.982, 192.0, 0.0, 0.0, 0.0, 0.0, 0.0, 0.0, 0.0, 0.0, 0.0, 1.686120738637829E9, 0.0, 2023-06-07 08:52:18.637
30.0, 32856.48320394554, 21301.771259519013, -2510.369123264447, -479.6907877553449, 14532.098416340163, -30.308965481396378, -4005.5667168577575, -13120.339884798514, 0.004, -0.014, 0.982, 192.0, 0.0, 0.0, 0.0, 0.0, 0.0, 0.0, 0.0, 0.0, 0.0, 1.686120738641902E9, 0.0, 2023-06-07 08:52:18.641
31.0, 32848.68244513064, 21299.06669843992, -2515.7558936781757, -476.8074127206103, 14486.366747184606, -14.953317040600425, -3988.2664666493497, -13091.506134451169, 0.004, -0.014, 0.982, 192.0, 0.0, 0.0, 0.0, 0.0, 0.0, 0.0, 0.0, 0.0, 0.0, 1.686120738645862E9, 0.0, 2023-06-07 08:52:18.645
32.0, 32815.08777321431, 21271.35053531534, -2551.0269464286503, -466.97264516027514, 14671.52859825237, 37.41682021818402, -3868.1258402020744, -12954.981679318153, 0.004, -0.014, 0.982, 192.0, 0.0, 0.0, 0.0, 0.0, 0.0, 0.0, 0.0, 0.0, 0.0, 1.686120738648833E9, 0.0, 2023-06-07 08:52:18.648
33.0, 32785.42700832212, 21239.566354699895, -2586.0297782456614, -479.91430519989797, 14823.811033226375, 52.59365470333752, -3824.13760711403, -12900.197553658194, 0.004, -0.014, 0.982, 192.0, 0.0, 0.0, 0.0, 0.0, 0.0, 0.0, 0.0, 0.0, 0.0, 1.686120738652833E9, 0.0, 2023-06-07 08:52:18.652
34.0, 32804.2918806424, 21248.551755970926, -2568.2824931481473, -496.1640234189062, 14736.996857761964, 16.294421707918847, -3911.979962823387, -12995.259522826616, 0.004, -0.014, 0.982, 192.0, 0.0, 0.0, 0.0, 0.0, 0.0, 0.0, 0.0, 0.0, 0.0, 1.68612073865685E9, 0.0, 2023-06-07 08:52:18.656
35.0, 32846.223753240556, 21287.332032600883, -2522.1484925923937, -485.56929654709063, 14533.350114029661, 3.7550930684915866, -3997.7436062984, -13096.132945553416, 0.004, -0.014, 0.982, 192.0, 0.0, 0.0, 0.0, 0.0, 0.0, 0.0, 0.0, 0.0, 0.0, 1.686120738660858E9, 0.0, 2023-06-07 08:52:18.660
36.0, 32841.663997371674, 21289.36604134632, -2523.646059470899, -476.5615435316019, 14484.332738439172, 24.3634014562847, -3975.1459926540847, -13073.647090631377, 0.004, -0.014, 0.982, 192.0, 0.0, 0.0, 0.0, 0.0, 0.0, 0.0, 0.0, 0.0, 0.0, 1.686120738665844E9, 0.0, 2023-06-07 08:52:18.665
37.0, 32796.4911218275, 21255.145520585244, -2569.1765629263596, -477.65677900991193, 14663.794894670833, 68.97748338907759, -3871.903285015021, -12951.092475782929, 0.004, -0.014, 0.982, 192.0, 0.0, 0.0, 0.0, 0.0, 0.0, 0.0, 0.0, 0.0, 0.0, 1.686120738669819E9, 0.0, 2023-06-07 08:52:18.669
38.0, 32768.57379300282, 21230.133918539756, -2596.669208606387, -488.1844506483616, 14825.330951849337, 98.28062036998516, -3808.491385995315, -12885.803030228977, 0.006, -0.01, 0.976, 192.0, 0.0, 48.0, 255.0, 176.0, 30.0, 128.0, 0.0, 0.0, 0.0, 1.686120738673994E9, 0.0, 2023-06-07 08:52:18.673
39.0, 32788.04216242339, 21237.19706978763, -2579.078385720061, -502.0201804661966, 14745.267003210427, 75.16891660319766, -3886.521325888792, -12976.685223184255, 0.006, -0.01, 0.976, 192.0, 0.0, 0.0, 0.0, 0.0, 0.0, 0.0, 0.0, 0.0, 0.0, 1.686120738676997E9, 0.0, 2023-06-07 08:52:18.676
40.0, 32829.996386766004, 21271.752866715535, -2537.660603244377, -501.5954973215458, 14529.192689560974, 45.910483111200705, -3997.542440598302, -13090.388547228402, 0.006, -0.01, 0.976, 192.0, 0.0, 0.0, 0.0, 0.0, 0.0, 0.0, 0.0, 0.0, 0.0, 1.686120738680954E9, 0.0, 2023-06-07 08:52:18.680
41.0, 32833.05857575638, 21281.49822729805, -2532.0279636416394, -483.49058431274705, 14477.515456380304, 65.89294265424522, -3972.6649490195455, -13059.923119535819, 0.006, -0.01, 0.976, 192.0, 0.0, 0.0, 0.0, 0.0, 0.0, 0.0, 0.0, 0.0, 0.0, 1.686120738684962E9, 0.0, 2023-06-07 08:52:18.684
42.0, 32787.68453451211, 21245.57897395837, -2578.094908964027, -471.8453254515321, 14663.794894670833, 119.04539096896542, -3847.5398835587366, -12919.911792267776, 0.006, -0.01, 0.976, 192.0, 0.0, 0.0, 0.0, 0.0, 0.0, 0.0, 0.0, 0.0, 0.0, 1.686120738688976E9, 0.0, 2023-06-07 08:52:18.688
43.0, 32761.778862688407, 21219.181563756654, -2606.6380866334543, -479.9813604332639, 14820.391216324713, 123.06870497092069, -3803.484595237326, -12866.468771275137, 0.006, -0.01, 0.976, 192.0, 0.0, 0.0, 0.0, 0.0, 0.0, 0.0, 0.0, 0.0, 0.0, 1.686120738692974E9, 0.0, 2023-06-07 08:52:18.692
44.0, 32794.68063052662, 21238.337008754854, -2579.078385720061, -500.38850312095923, 14730.827776292299, 75.9512276591334, -3902.39106445206, -12973.935958616252, 0.006, -0.01, 0.976, 192.0, 0.0, 0.0, 0.0, 0.0, 0.0, 0.0, 0.0, 0.0, 0.0, 1.686120738697952E9, 0.0, 2023-06-07 08:52:18.697
45.0, 32843.22861948355, 21279.10659064133, -2526.2835653166253, -498.68977054235586, 14517.145099299563, 40.63547141974824, -4014.909746040076, -13103.084338079017, 0.006, -0.01, 0.976, 192.0, 0.0, 0.0, 0.0, 0.0, 0.0, 0.0, 0.0, 0.0, 0.0, 1.686120738702133E9, 0.0, 2023-06-07 08:52:18.702
46.0, 32850.58234340934, 21292.49528557006, -2518.616916968455, -476.6062470205125, 14472.665127833501, 57.24281755004139, -3982.946751468987, -13086.678157648821, 0.006, -0.01, 0.976, 192.0, 0.0, 0.0, 0.0, 0.0, 0.0, 0.0, 0.0, 0.0, 0.0, 1.686120738705058E9, 0.0, 2023-06-07 08:52:18.705
47.0, 32793.00424969247, 21245.914250125203, -2579.100737464516, -475.57806677556835, 14653.803664899311, 82.09795738434283, -3874.3843286495603, -12979.143915074339, 0.006, -0.01, 0.976, 192.0, 0.0, 0.0, 0.0, 0.0, 0.0, 0.0, 0.0, 0.0, 0.0, 1.686120738709859E9, 0.0, 2023-06-07 08:52:18.709
48.0, 32754.827470162807, 21212.878371820258, -2611.8683948359962, -485.70340701382247, 14814.937390677618, 79.66161723871437, -3830.6643164949796, -12937.681429109745, 0.004, -0.008, 0.97, 192.0, 0.0, 32.0, 255.0, 192.0, 30.0, 80.0, 0.0, 0.0, 0.0, 1.686120738713085E9, 0.0, 2023-06-07 08:52:18.713
49.0, 32782.83420596531, 21234.53721219745, -2576.3067694076026, -496.72281703028887, 14741.556613630846, 44.74819239952474, -3912.3822942235824, -13030.351761621449, 0.004, -0.008, 0.97, 192.0, 0.0, 0.0, 0.0, 0.0, 0.0, 0.0, 0.0, 0.0, 0.0, 1.686120738717081E9, 0.0, 2023-06-07 08:52:18.717
50.0, 32835.807840324385, 21280.15712263073, -2521.6344024699215, -497.8851077419648, 14534.512404741337, 17.88139556424565, -4011.892260538609, -13141.574042031056, 0.004, -0.008, 0.97, 192.0, 0.0, 0.0, 0.0, 0.0, 0.0, 0.0, 0.0, 0.0, 0.0, 1.686120738721077E9, 0.0, 2023-06-07 08:52:18.721
51.0, 32845.530849162446, 21291.40005009175, -2512.693704687799, -488.02798843717443, 14481.494066893349, 24.43045668965062, -3989.227591660928, -13116.87536440794, 0.004, -0.008, 0.97, 192.0, 0.0, 0.0, 0.0, 0.0, 0.0, 0.0, 0.0, 0.0, 0.0, 1.686120738726121E9, 0.0, 2023-06-07 08:52:18.726
52.0, 32801.67672654113, 21259.101779353834, -2553.9326732078403, -472.3817673184595, 14667.505284250414, 68.91042815571167, -3872.4173751374933, -12984.821258165986, 0.004, -0.008, 0.97, 192.0, 0.0, 0.0, 0.0, 0.0, 0.0, 0.0, 0.0, 0.0, 0.0, 1.6861207387291E9, 0.0, 2023-06-07 08:52:18.729
53.0, 32763.94698190057, 21223.83072660336, -2589.717816080787, -474.6839969973561, 14833.109358919784, 64.01539611999942, -3836.721639242368, -12940.877728566853, 0.004, -0.008, 0.97, 192.0, 0.0, 0.0, 0.0, 0.0, 0.0, 0.0, 0.0, 0.0, 0.0, 1.686120738733101E9, 0.0, 2023-06-07 08:52:18.733
54.0, 32790.1879298911, 21237.509994210006, -2567.522533836667, -502.2436979107497, 14745.088189254784, 5.118549480265317, -3943.741791694378, -13056.168026467327, 0.004, -0.008, 0.97, 192.0, 0.0, 0.0, 0.0, 0.0, 0.0, 0.0, 0.0, 0.0, 0.0, 1.686120738737187E9, 0.0, 2023-06-07 08:52:18.737
55.0, 32846.223753240556, 21284.091029654865, -2514.951230877785, -505.0153142232078, 14530.578497717202, -22.485854922038904, -4038.222615506961, -13168.127914443961, 0.004, -0.008, 0.97, 192.0, 0.0, 0.0, 0.0, 0.0, 0.0, 0.0, 0.0, 0.0, 0.0, 1.686120738741092E9, 0.0, 2023-06-07 08:52:18.741
56.0, 32854.73976787803, 21295.78099200499, -2506.390512751402, -476.9638749317974, 14486.746726840345, 21.278860721452325, -3982.4326613465146, -13118.439986519812, 0.004, -0.008, 0.97, 192.0, 0.0, 0.0, 0.0, 0.0, 0.0, 0.0, 0.0, 0.0, 0.0, 1.686120738745092E9, 0.0, 2023-06-07 08:52:18.745
57.0, 32812.42791562413, 21263.214500333608, -2547.160094637882, -462.1446683579288, 14671.416839530093, 68.6869107111586, -3862.761421532801, -12985.469458755191, 0.004, -0.008, 0.97, 192.0, 0.0, 0.0, 0.0, 0.0, 0.0, 0.0, 0.0, 0.0, 0.0, 1.686120738749217E9, 0.0, 2023-06-07 08:52:18.749
58.0, 32782.454226309565, 21235.34187499784, -2577.8266880305637, -479.5790290330683, 14831.522385063457, 64.46243100910557, -3825.8139879481782, -12937.346152942915, 0.004, -0.008, 0.968, 192.0, 0.0, 32.0, 255.0, 192.0, 30.0, 64.0, 0.0, 0.0, 0.0, 1.686120738754201E9, 0.0, 2023-06-07 08:52:18.754
59.0, 32795.954679960574, 21243.746130913038, -2561.778135511653, -496.8569274970207, 14758.119256272228, 11.354686183295987, -3922.664096673024, -13039.448921614758, 0.004, -0.008, 0.968, 192.0, 0.0, 0.0, 0.0, 0.0, 0.0, 0.0, 0.0, 0.0, 0.0, 1.686120738757267E9, 0.0, 2023-06-07 08:52:18.757
60.0, 32845.88847707373, 21289.656614024236, -2510.100902330983, -489.74907276023305, 14546.649401980569, -24.609270645293076, -4031.003002047897, -13159.254271895203, 0.004, -0.008, 0.968, 192.0, 0.0, 0.0, 0.0, 0.0, 0.0, 0.0, 0.0, 0.0, 0.0, 1.68612073876023E9, 0.0, 2023-06-07 08:52:18.760
61.0, 32857.86901210177, 21307.090974699375, -2495.8851928574077, -471.19712486232817, 14484.623311117091, -8.046628003910543, -4009.835900048721, -13134.689704738821, 0.004, -0.008, 0.968, 192.0, 0.0, 0.0, 0.0, 0.0, 0.0, 0.0, 0.0, 0.0, 0.0, 1.686120738765216E9, 0.0, 2023-06-07 08:52:18.765
62.0, 32826.93419777563, 21281.677041253693, -2531.6032804969886, -441.044621592119, 14671.036859874352, 43.31768075438509, -3880.754575819323, -12994.38780479286, 0.004, -0.008, 0.968, 192.0, 0.0, 0.0, 0.0, 0.0, 0.0, 0.0, 0.0, 0.0, 0.0, 1.686120738769203E9, 0.0, 2023-06-07 08:52:18.769
63.0, 32803.4425143531, 21256.419570019196, -2560.615844799977, -441.93869137033124, 14842.295925890914, 52.81717214789059, -3823.332944313639, -12932.719341840666, 0.004, -0.008, 0.968, 192.0, 0.0, 0.0, 0.0, 0.0, 0.0, 0.0, 0.0, 0.0, 0.0, 1.686120738773225E9, 0.0, 2023-06-07 08:52:18.773
64.0, 32818.01585173796, 21268.891843425256, -2538.8675974449634, -466.63736899344553, 14763.751895874966, -0.6482005892039048, -3909.4542156999373, -13038.778369281099, 0.004, -0.008, 0.968, 192.0, 0.0, 0.0, 0.0, 0.0, 0.0, 0.0, 0.0, 0.0, 0.0, 1.686120738777227E9, 0.0, 2023-06-07 08:52:18.777
65.0, 32860.3053522474, 21306.59923632136, -2493.8735358564304, -476.42743306487006, 14541.776721689312, -38.288538251941, -3987.752376526878, -13166.205664420804, 0.004, -0.008, 0.968, 192.0, 0.0, 0.0, 0.0, 0.0, 0.0, 0.0, 0.0, 0.0, 0.0, 1.68612073878122E9, 0.0, 2023-06-07 08:52:18.781
66.0, 32869.08958781834, 21315.808155036946, -2484.999893307673, -469.364281816993, 14482.321081438195, -11.86877630576805, -3952.1460476095735, -13139.003591418696, 0.004, -0.008, 0.968, 192.0, 0.0, 0.0, 0.0, 0.0, 0.0, 0.0, 0.0, 0.0, 0.0, 1.686120738785224E9, 0.0, 2023-06-07 08:52:18.785
67.0, 32823.67084308515, 21283.39812557675, -2528.1164083619606, -454.8132961765881, 14667.974670883976, 49.82203839087944, -3840.7449532443234, -12995.326578059981, 0.004, -0.008, 0.968, 192.0, 0.0, 0.0, 0.0, 0.0, 0.0, 0.0, 0.0, 0.0, 0.0, 1.686120738788371E9, 0.0, 2023-06-07 08:52:18.788
68.0, 32795.4405898381, 21258.16300608671, -2556.167847653371, -457.49550551122496, 14839.211385156083, 64.41772752019496, -3795.527374211237, -12927.153757471295, 0.004, -0.01, 0.97, 192.0, 0.0, 32.0, 255.0, 176.0, 30.0, 80.0, 0.0, 0.0, 0.0, 1.686120738793363E9, 0.0, 2023-06-07 08:52:18.793
69.0, 32815.937139503614, 21270.992907404056, -2532.139722363916, -474.99692141973037, 14765.96471857604, 20.16127349868697, -3891.4387096689597, -13013.856174213432, 0.004, -0.01, 0.97, 192.0, 0.0, 0.0, 0.0, 0.0, 0.0, 0.0, 0.0, 0.0, 0.0, 1.686120738798337E9, 0.0, 2023-06-07 08:52:18.798
70.0, 32862.853451115305, 21310.51079160104, -2486.8327363530084, -473.4993545412248, 14552.170282861029, -11.48879665002783, -3993.943809740998, -13134.376780316446, 0.004, -0.01, 0.97, 192.0, 0.0, 0.0, 0.0, 0.0, 0.0, 0.0, 0.0, 0.0, 0.0, 1.686120738802337E9, 0.0, 2023-06-07 08:52:18.802
71.0, 32865.80388138341, 21314.08707071389, -2488.978503820718, -462.010557891197, 14488.266645463305, -2.928078523645225, -3982.6561787910678, -13129.168823858361, 0.004, -0.01, 0.97, 192.0, 0.0, 0.0, 0.0, 0.0, 0.0, 0.0, 0.0, 0.0, 0.0, 1.686120738805405E9, 0.0, 2023-06-07 08:52:18.805
72.0, 32827.31417743137, 21286.68383201168, -2523.3107833040694, -453.785115931644, 14659.302194035316, 38.15442778520916, -3876.753613561823, -13008.938790433263, 0.004, -0.01, 0.97, 192.0, 0.0, 0.0, 0.0, 0.0, 0.0, 0.0, 0.0, 0.0, 0.0, 1.686120738809341E9, 0.0, 2023-06-07 08:52:18.809
73.0, 32802.68255504162, 21260.286421809964, -2552.5468650516113, -466.525610271169, 14821.575858780845, 37.01448881798849, -3837.7721712317675, -12957.485074697146, 0.004, -0.01, 0.97, 192.0, 0.0, 0.0, 0.0, 0.0, 0.0, 0.0, 0.0, 0.0, 0.0, 1.686120738813465E9, 0.0, 2023-06-07 08:52:18.813
74.0, 32824.45315414109, 21273.429247549684, -2533.816103198064, -484.3846540909594, 14748.664468367633, -2.503395378994391, -3917.0314570702863, -13045.305078662048, 0.004, -0.01, 0.97, 192.0, 0.0, 0.0, 0.0, 0.0, 0.0, 0.0, 0.0, 0.0, 0.0, 1.686120738816473E9, 0.0, 2023-06-07 08:52:18.816
75.0, 32863.0546168154, 21306.26396015453, -2495.5499166905784, -488.13974715945096, 14535.764102430834, -30.867759092779053, -4010.975839015942, -13160.84124575153, 0.004, -0.01, 0.97, 192.0, 0.0, 0.0, 0.0, 0.0, 0.0, 0.0, 0.0, 0.0, 0.0, 1.686120738820498E9, 0.0, 2023-06-07 08:52:18.820
76.0, 32879.281983289955, 21327.051082497965, -2477.48970717069, -475.1086801420069, 14462.562139339703, -24.3634014562847, -3997.7212545539446, -13153.867501481474, 0.004, -0.01, 0.97, 192.0, 0.0, 0.0, 0.0, 0.0, 0.0, 0.0, 0.0, 0.0, 0.0, 1.68612073882549E9, 0.0, 2023-06-07 08:52:18.825
77.0, 32828.52117163195, 21288.427268079195, -2526.2835653166253, -464.268084081183, 14630.580202410247, 12.002886772499892, -3894.4338434259707, -13032.050494200052, 0.004, -0.01, 0.97, 192.0, 0.0, 0.0, 0.0, 0.0, 0.0, 0.0, 0.0, 0.0, 0.0, 1.6861207388295E9, 0.0, 2023-06-07 08:52:18.829
78.0, 32793.11600841475, 21256.68779095266, -2560.884065733441, -478.1485173879287, 14795.35726253477, 31.11362828178743, -3834.084133396642, -12969.644423680833, 0.002, -0.008, 0.97, 192.0, 0.0, 16.0, 255.0, 192.0, 30.0, 80.0, 0.0, 0.0, 0.0, 1.686120738833446E9, 0.0, 2023-06-07 08:52:18.833
79.0, 32812.96435749106, 21266.522558512996, -2544.3661265809687, -494.91232572940896, 14729.48667162498, -0.5587936113826766, -3903.329837719183, -13056.369192167425, 0.002, -0.008, 0.97, 192.0, 0.0, 0.0, 0.0, 0.0, 0.0, 0.0, 0.0, 0.0, 0.0, 1.686120738836482E9, 0.0, 2023-06-07 08:52:18.836
80.0, 32858.2042882686, 21301.391279863274, -2501.853108626975, -491.0007704497302, 14525.482299981393, -36.29923299541867, -4010.5064523823803, -13177.761516304197, 0.002, -0.008, 0.97, 192.0, 0.0, 0.0, 0.0, 0.0, 0.0, 0.0, 0.0, 0.0, 0.0, 1.686120738840498E9, 0.0, 2023-06-07 08:52:18.840
81.0, 32866.67559941716, 21314.757623047546, -2489.11261428745, -482.4177005788923, 14461.131627694564, -24.788084600935534, -3998.3023999097827, -13164.730449286753, 0.002, -0.008, 0.97, 192.0, 0.0, 0.0, 0.0, 0.0, 0.0, 0.0, 0.0, 0.0, 0.0, 1.686120738844482E9, 0.0, 2023-06-07 08:52:18.844
82.0, 32819.669880827656, 21277.273747596, -2534.5760625095445, -476.36037783150414, 14638.805644369799, 21.07769502135456, -3885.806070066222, -13028.787139509575, 0.002, -0.008, 0.97, 192.0, 0.0, 0.0, 0.0, 0.0, 0.0, 0.0, 0.0, 0.0, 0.0, 1.686120738848456E9, 0.0, 2023-06-07 08:52:18.848
83.0, 32789.673839768635, 21248.998790860034, -2566.8743332474633, -477.45561330981417, 14816.949047678596, 26.442113690628254, -3835.2240723638624, -12960.100228798417, 0.002, -0.008, 0.97, 192.0, 0.0, 0.0, 0.0, 0.0, 0.0, 0.0, 0.0, 0.0, 0.0, 1.686120738852474E9, 0.0, 2023-06-07 08:52:18.852
84.0, 32815.668918570154, 21268.333049813875, -2539.672260245354, -483.93761920185324, 14760.510892928945, -6.839633803323961, -3909.9236023334984, -13037.303154147048, 0.002, -0.008, 0.97, 192.0, 0.0, 0.0, 0.0, 0.0, 0.0, 0.0, 0.0, 0.0, 0.0, 1.68612073885747E9, 0.0, 2023-06-07 08:52:18.857
85.0, 32867.815538384384, 21312.813021279933, -2487.7268061312207, -485.65870352491186, 14548.281079325805, -38.04266906293262, -4007.5560221142796, -13149.017172934673, 0.002, -0.008, 0.97, 192.0, 0.0, 0.0, 0.0, 0.0, 0.0, 0.0, 0.0, 0.0, 0.0, 1.686120738861782E9, 0.0, 2023-06-07 08:52:18.861
86.0, 32867.323800006365, 21315.986968992587, -2489.2914282430925, -466.74912771572207, 14484.600959372636, -30.554834670404755, -3996.201335930984, -13138.802425718597, 0.002, -0.008, 0.97, 192.0, 0.0, 0.0, 0.0, 0.0, 0.0, 0.0, 0.0, 0.0, 0.0, 1.686120738864631E9, 0.0, 2023-06-07 08:52:18.864
87.0, 32830.08579374383, 21283.308718598928, -2534.0172688981615, -446.3419850280267, 14662.856121403709, 12.293459450418885, -3880.419299652493, -13011.822165467998, 0.002, -0.008, 0.97, 192.0, 0.0, 0.0, 0.0, 0.0, 0.0, 0.0, 0.0, 0.0, 0.0, 1.686120738868601E9, 0.0, 2023-06-07 08:52:18.868
88.0, 32796.513473571955, 21251.59159321685, -2567.03079545865, -460.28947356813836, 14833.26582113097, 26.24094799053049, -3821.008362890287, -12952.366525216881, 0.004, -0.01, 0.974, 192.0, 0.0, 32.0, 255.0, 176.0, 30.0, 112.0, 0.0, 0.0, 0.0, 1.686120738872629E9, 0.0, 2023-06-07 08:52:18.872
89.0, 32822.933235518125, 21264.600308489837, -2543.6955742473097, -476.76270923169966, 14778.392288493193, -2.481043634539084, -3894.2773812147834, -13041.706447804743, 0.004, -0.01, 0.974, 192.0, 0.0, 0.0, 0.0, 0.0, 0.0, 0.0, 0.0, 0.0, 0.0, 1.686120738876593E9, 0.0, 2023-06-07 08:52:18.876
90.0, 32856.080872545346, 21296.429192594194, -2502.858937127464, -485.815165736099, 14561.781532976811, -38.02031731847731, -4001.9904377449084, -13169.983109233752, 0.004, -0.01, 0.974, 192.0, 0.0, 0.0, 0.0, 0.0, 0.0, 0.0, 0.0, 0.0, 0.0, 1.686120738880589E9, 0.0, 2023-06-07 08:52:18.880
91.0, 32859.16541328018, 21307.426250866207, -2493.3817974784133, -480.83072672256554, 14489.160715241518, -27.8502735913126, -3992.133318440118, -13162.65173705241, 0.004, -0.01, 0.974, 192.0, 0.0, 0.0, 0.0, 0.0, 0.0, 0.0, 0.0, 0.0, 0.0, 1.686120738885624E9, 0.0, 2023-06-07 08:52:18.885
92.0, 32822.57560760684, 21282.39229707626, -2525.657716471877, -466.70442422681145, 14663.057287103808, 20.00481128749982, -3874.5407908607476, -13034.889165745875, 0.004, -0.01, 0.974, 192.0, 0.0, 0.0, 0.0, 0.0, 0.0, 0.0, 0.0, 0.0, 0.0, 1.686120738889586E9, 0.0, 2023-06-07 08:52:18.889
93.0, 32791.93136595862, 21253.62560196228, -2559.6100162994885, -473.4770027967695, 14837.467949088568, 33.08058179385445, -3815.867461665566, -12970.292624270038, 0.004, -0.01, 0.974, 192.0, 0.0, 0.0, 0.0, 0.0, 0.0, 0.0, 0.0, 0.0, 0.0, 1.686120738892594E9, 0.0, 2023-06-07 08:52:18.892
94.0, 32807.80110452189, 21257.693619453148, -2549.417620827868, -493.3253518730822, 14776.06770706984, 0.6482005892039048, -3895.7302446043786, -13061.86772130343, 0.004, -0.01, 0.974, 192.0, 0.0, 0.0, 0.0, 0.0, 0.0, 0.0, 0.0, 0.0, 0.0, 1.686120738896585E9, 0.0, 2023-06-07 08:52:18.896
95.0, 32860.9535528366, 21301.16776241872, -2499.752044648176, -496.2310786522721, 14559.456951553459, -28.654936391703654, -4001.5657546002576, -13183.37180416248, 0.004, -0.01, 0.974, 192.0, 0.0, 0.0, 0.0, 0.0, 0.0, 0.0, 0.0, 0.0, 0.0, 1.686120738900779E9, 0.0, 2023-06-07 08:52:18.900
96.0, 32874.58811695434, 21318.825640538413, -2488.598524164978, -471.8453254515321, 14490.501819908837, -17.747285097513807, -3989.719330038945, -13167.166789432382, 0.004, -0.01, 0.974, 192.0, 0.0, 0.0, 0.0, 0.0, 0.0, 0.0, 0.0, 0.0, 0.0, 1.686120738904735E9, 0.0, 2023-06-07 08:52:18.904
97.0, 32830.35401467729, 21286.907349456233, -2529.6363269849217, -436.21664478977266, 14675.395450043137, 32.65589864920362, -3860.2133226648957, -13023.15449990684, 0.004, -0.01, 0.974, 192.0, 0.0, 0.0, 0.0, 0.0, 0.0, 0.0, 0.0, 0.0, 0.0, 1.68612073890871E9, 0.0, 2023-06-07 08:52:18.908
98.0, 32799.240386395504, 21256.754846186024, -2561.9345977228404, -447.6607379508898, 14848.867338760774, 42.736535398547105, -3797.3155137676617, -12953.305298484005, 0.002, -0.01, 0.974, 192.0, 0.0, 16.0, 255.0, 176.0, 30.0, 112.0, 0.0, 0.0, 0.0, 1.686120738913726E9, 0.0, 2023-06-07 08:52:18.913
99.0, 32814.9983662365, 21265.7178957126, -2544.7908097256195, -477.45561330981417, 14778.92873036012, -8.51601463747199, -3893.5397736477585, -13056.480950889701, 0.002, -0.01, 0.974, 192.0, 0.0, 0.0, 0.0, 0.0, 0.0, 0.0, 0.0, 0.0, 0.0, 1.686120738917739E9, 0.0, 2023-06-07 08:52:18.917
100.0, 32857.466680701575, 21301.32422462991, -2502.657771427366, -492.6324477949677, 14548.169320603529, -59.25447455101902, -4023.1351879996287, -13194.882952556964, 0.002, -0.01, 0.974, 192.0, 0.0, 0.0, 0.0, 0.0, 0.0, 0.0, 0.0, 0.0, 0.0, 1.686120738920724E9, 0.0, 2023-06-07 08:52:18.920
101.0, 32873.44817798712, 21318.065681226934, -2487.458585197757, -480.2942848556382, 14462.852712017622, -46.80455288941299, -4010.707618082478, -13186.456344897313, 0.002, -0.01, 0.974, 192.0, 0.0, 0.0, 0.0, 0.0, 0.0, 0.0, 0.0, 0.0, 0.0, 1.686120738924724E9, 0.0, 2023-06-07 08:52:18.924
102.0, 32831.09162224431, 21283.800456976947, -2530.552748507589, -450.25354030770546, 14646.874624118165, 25.302174723407596, -3860.794468020734, -13033.950392478751, 0.002, -0.01, 0.974, 192.0, 0.0, 0.0, 0.0, 0.0, 0.0, 0.0, 0.0, 0.0, 0.0, 1.68612073892871E9, 0.0, 2023-06-07 08:52:18.928
103.0, 32802.43668585261, 21261.180491588177, -2556.1231441644604, -454.8579996654987, 14827.45436757259, 44.994061588533114, -3790.3417694976056, -12958.960289831197, 0.002, -0.01, 0.974, 192.0, 0.0, 0.0, 0.0, 0.0, 0.0, 0.0, 0.0, 0.0, 0.0, 1.686120738932732E9, 0.0, 2023-06-07 08:52:18.932
104.0, 32822.933235518125, 21275.64207025076, -2533.9949171537064, -473.7675754746885, 14769.764515133444, 5.722046580558608, -3871.970340248387, -13045.997982740162, 0.002, -0.01, 0.974, 192.0, 0.0, 0.0, 0.0, 0.0, 0.0, 0.0, 0.0, 0.0, 0.0, 1.686120738936843E9, 0.0, 2023-06-07 08:52:18.936
105.0, 32881.85243390232, 21318.64682658277, -2483.882306084908, -482.2612383677052, 14552.751428216867, -34.220520761075115, -3987.707673037967, -13175.079306969561, 0.002, -0.01, 0.974, 192.0, 0.0, 0.0, 0.0, 0.0, 0.0, 0.0, 0.0, 0.0, 0.0, 1.686120738941837E9, 0.0, 2023-06-07 08:52:18.941
106.0, 32915.8717889633, 21345.535975162504, -2460.6811953402994, -471.3982905624259, 14472.218092944395, -24.005773544999784, -3982.007978201864, -13169.22314992227, 0.002, -0.01, 0.974, 192.0, 0.0, 0.0, 0.0, 0.0, 0.0, 0.0, 0.0, 0.0, 0.0, 1.686120738944825E9, 0.0, 2023-06-07 08:52:18.944
107.0, 32861.758215637, 21310.22021892312, -2503.887117372408, -461.96585440228637, 14635.072903045762, 18.0378577754328, -3874.4737356273818, -13047.137921707383, 0.002, -0.01, 0.974, 192.0, 0.0, 0.0, 0.0, 0.0, 0.0, 0.0, 0.0, 0.0, 0.0, 1.68612073894784E9, 0.0, 2023-06-07 08:52:18.947
108.0, 32823.00029075149, 21286.54972154495, -2527.267042072659, -471.7112149848003, 14807.471908029547, 29.14667476972041, -3818.1920430889186, -12983.167229076294, 0.002, -0.01, 0.974, 192.0, 0.0, 0.0, 0.0, 0.0, 0.0, 0.0, 0.0, 0.0, 0.0, 1.68612073895286E9, 0.0, 2023-06-07 08:52:18.952
109.0, 32829.437593154624, 21285.007451177535, -2521.0309053696283, -489.41379659340345, 14758.96862256153, -7.823110559357472, -3894.5008986593366, -13068.975576040219, 0.004, -0.008, 0.978, 192.0, 0.0, 32.0, 255.0, 192.0, 30.0, 144.0, 0.0, 0.0, 0.0, 1.686120738956844E9, 0.0, 2023-06-07 08:52:18.956
110.0, 32875.88451813275, 21324.525335374517, -2472.594675134978, -491.7160262723001, 14545.68827696899, -42.49066620953872, -4000.224649932939, -13192.357205433513, 0.004, -0.008, 0.978, 192.0, 0.0, 0.0, 0.0, 0.0, 0.0, 0.0, 0.0, 0.0, 0.0, 1.68612073896084E9, 0.0, 2023-06-07 08:52:18.960
111.0, 32870.78832039694, 21323.251285940565, -2476.6850443702992, -487.0892151700515, 14461.042220716743, -35.69573589512538, -3994.234382418917, -13189.116202487494, 0.004, -0.008, 0.978, 192.0, 0.0, 0.0, 0.0, 0.0, 0.0, 0.0, 0.0, 0.0, 0.0, 1.686120738965119E9, 0.0, 2023-06-07 08:52:18.965
112.0, 32827.96237802057, 21290.505980313537, -2517.789902423609, -475.8909911979427, 14625.03696978533, 7.577241370349094, -3884.263799698806, -13064.885206804896, 0.004, -0.008, 0.978, 192.0, 0.0, 0.0, 0.0, 0.0, 0.0, 0.0, 0.0, 0.0, 0.0, 1.686120738969856E9, 0.0, 2023-06-07 08:52:18.969
113.0, 32810.840941767805, 21269.897671925744, -2538.755838722687, -479.44491856633647, 14803.873277172243, 21.480026421550086, -3821.6118599905803, -12992.912589658808, 0.004, -0.008, 0.978, 192.0, 0.0, 0.0, 0.0, 0.0, 0.0, 0.0, 0.0, 0.0, 0.0, 1.686120738972837E9, 0.0, 2023-06-07 08:52:18.972
114.0, 32840.635817126735, 21286.616776778315, -2514.0571610995726, -486.28455236966045, 14754.364163203736, -8.404255915195456, -3895.037340526264, -13071.881302819409, 0.004, -0.008, 0.978, 192.0, 0.0, 0.0, 0.0, 0.0, 0.0, 0.0, 0.0, 0.0, 0.0, 1.686120738975958E9, 0.0, 2023-06-07 08:52:18.975
115.0, 32880.824253657374, 21319.451489383162, -2474.226352480215, -493.52651757317994, 14536.546413486769, -48.1009540678208, -4011.7805018163326, -13200.76146134871, 0.004, -0.008, 0.978, 192.0, 0.0, 0.0, 0.0, 0.0, 0.0, 0.0, 0.0, 0.0, 0.0, 1.686120738980018E9, 0.0, 2023-06-07 08:52:18.980
116.0, 32877.09151233334, 21325.039425496987, -2467.8784570549083, -483.4011773349258, 14450.134569422553, -42.75888714300241, -4010.908783782576, -13201.096737515538, 0.004, -0.008, 0.978, 192.0, 0.0, 0.0, 0.0, 0.0, 0.0, 0.0, 0.0, 0.0, 0.0, 1.686120738984961E9, 0.0, 2023-06-07 08:52:18.984
117.0, 32825.458982641576, 21285.052154666442, -2521.5896989810108, -469.9901306617416, 14616.096272003208, -0.29057267791899183, -3904.737997619867, -13074.004718542663, 0.004, -0.008, 0.978, 192.0, 0.0, 0.0, 0.0, 0.0, 0.0, 0.0, 0.0, 0.0, 0.0, 1.686120738988965E9, 0.0, 2023-06-07 08:52:18.988
118.0, 32792.87013922574, 21258.29711655344, -2551.2504638732034, -477.70148249882254, 14798.039471869406, 18.41783743117302, -3832.206586862396, -12996.891200171853, 0.004, -0.008, 0.978, 192.0, 0.0, 0.0, 0.0, 0.0, 0.0, 0.0, 0.0, 0.0, 0.0, 1.686120738993072E9, 0.0, 2023-06-07 08:52:18.993
119.0, 32822.82147679585, 21276.759657473525, -2525.88123391643, -497.9074594864201, 14746.16107298864, -11.198223972108838, -3895.4843754153703, -13078.698584878277, 0.002, -0.008, 0.976, 192.0, 0.0, 16.0, 255.0, 192.0, 30.0, 128.0, 0.0, 0.0, 0.0, 1.686120738996961E9, 0.0, 2023-06-07 08:52:18.996
120.0, 32881.07012284638, 21324.391224907784, -2470.6724251118217, -500.14263393195085, 14530.176166317007, -41.64129992023706, -4005.5667168577575, -13204.002464294728, 0.002, -0.008, 0.976, 192.0, 0.0, 0.0, 0.0, 0.0, 0.0, 0.0, 0.0, 0.0, 0.0, 1.686120739001016E9, 0.0, 2023-06-07 08:52:19.001
121.0, 32894.79409394194, 21338.539879147993, -2457.1049162274503, -488.8997064709314, 14440.500967562315, -35.62868066175946, -4006.5948971027015, -13210.015083553206, 0.002, -0.008, 0.976, 192.0, 0.0, 0.0, 0.0, 0.0, 0.0, 0.0, 0.0, 0.0, 0.0, 1.686120739003979E9, 0.0, 2023-06-07 08:52:19.003
122.0, 32851.319950976365, 21306.778050277004, -2498.8132713810533, -468.4031568054148, 14602.864039285665, 9.90182279370103, -3892.3104277027164, -13084.532390181112, 0.002, -0.008, 0.976, 192.0, 0.0, 0.0, 0.0, 0.0, 0.0, 0.0, 0.0, 0.0, 0.0, 1.686120739007966E9, 0.0, 2023-06-07 08:52:19.007
123.0, 32819.33460466082, 21277.11728538481, -2530.843321185508, -467.79965970512154, 14786.371861263737, 26.017430545977422, -3816.716827954868, -13000.869810684897, 0.002, -0.008, 0.976, 192.0, 0.0, 0.0, 0.0, 0.0, 0.0, 0.0, 0.0, 0.0, 0.0, 1.686120739012966E9, 0.0, 2023-06-07 08:52:19.012
124.0, 32837.774793836456, 21286.862645967325, -2514.25832679967, -476.8074127206103, 14742.428331664603, -2.101063978798864, -3875.680729827968, -13069.869645818431, 0.002, -0.008, 0.976, 192.0, 0.0, 0.0, 0.0, 0.0, 0.0, 0.0, 0.0, 0.0, 0.0, 1.686120739017111E9, 0.0, 2023-06-07 08:52:19.017
125.0, 32879.99723911253, 21318.512716116038, -2474.852201324964, -479.1543458884175, 14532.031361106798, -39.36142198579574, -3988.110004438163, -13193.810068823108, 0.002, -0.008, 0.976, 192.0, 0.0, 0.0, 0.0, 0.0, 0.0, 0.0, 0.0, 0.0, 0.0, 1.686120739021111E9, 0.0, 2023-06-07 08:52:19.021
126.0, 32890.32374505088, 21334.047178512476, -2460.949416273763, -480.13782264445103, 14437.371723338572, -35.58397717284885, -3992.5132980958583, -13203.890705572452, 0.002, -0.008, 0.976, 192.0, 0.0, 0.0, 0.0, 0.0, 0.0, 0.0, 0.0, 0.0, 0.0, 1.686120739025077E9, 0.0, 2023-06-07 08:52:19.025
127.0, 32844.21209623958, 21299.916064729223, -2504.7141319172542, -464.8268776925657, 14597.633731083124, 2.905726779189918, -3885.6049043661246, -13083.235989002704, 0.002, -0.008, 0.976, 192.0, 0.0, 0.0, 0.0, 0.0, 0.0, 0.0, 0.0, 0.0, 0.0, 1.686120739028069E9, 0.0, 2023-06-07 08:52:19.028
128.0, 32803.4425143531, 21266.29904106844, -2540.2087021122816, -468.17963936086176, 14783.510837973457, 7.443130903617252, -3825.679877481446, -13013.744415491155, 0.002, -0.008, 0.976, 192.0, 0.0, 0.0, 0.0, 0.0, 0.0, 0.0, 0.0, 0.0, 0.0, 1.68612073903212E9, 0.0, 2023-06-07 08:52:19.032
129.0, 32823.849657040795, 21281.34176508686, -2519.510986746667, -483.3788255904705, 14742.830663064799, -20.98828804353333, -3891.170488735496, -13091.506134451169, 0.002, -0.01, 0.974, 192.0, 0.0, 16.0, 255.0, 176.0, 30.0, 112.0, 0.0, 0.0, 0.0, 1.686120739036086E9, 0.0, 2023-06-07 08:52:19.036
130.0, 32875.728055921565, 21320.390262650286, -2473.48874491319, -487.58095354806824, 14531.204346561952, -46.64809067822584, -3995.8884115086094, -13214.261914999714, 0.002, -0.01, 0.974, 192.0, 0.0, 0.0, 0.0, 0.0, 0.0, 0.0, 0.0, 0.0, 0.0, 1.686120739041092E9, 0.0, 2023-06-07 08:52:19.041
131.0, 32871.70474191961, 21320.45731788365, -2473.689910613288, -487.6480087814342, 14438.265793116785, -47.20688428960852, -4005.03027499083, -13223.783758137675, 0.002, -0.01, 0.974, 192.0, 0.0, 0.0, 0.0, 0.0, 0.0, 0.0, 0.0, 0.0, 0.0, 1.686120739045094E9, 0.0, 2023-06-07 08:52:19.045
132.0, 32832.54448563391, 21291.668271025213, -2512.8278151545305, -477.8579447100097, 14603.422832897048, -7.621944859259709, -3900.4464626844483, -13102.123213067438, 0.002, -0.01, 0.974, 192.0, 0.0, 0.0, 0.0, 0.0, 0.0, 0.0, 0.0, 0.0, 0.0, 1.686120739049093E9, 0.0, 2023-06-07 08:52:19.049
133.0, 32806.16942717665, 21265.40497129023, -2545.6625277593766, -479.6907877553449, 14796.318387546347, 7.398427414706638, -3829.837301950133, -13021.38871209487, 0.002, -0.01, 0.974, 192.0, 0.0, 0.0, 0.0, 0.0, 0.0, 0.0, 0.0, 0.0, 0.0, 1.686120739052094E9, 0.0, 2023-06-07 08:52:19.052
134.0, 32820.76511630596, 21272.8704539383, -2531.0891903745164, -492.1183576724956, 14758.186311505595, -24.58691890083777, -3902.6369336410685, -13098.859858376964, 0.002, -0.01, 0.974, 192.0, 0.0, 0.0, 0.0, 0.0, 0.0, 0.0, 0.0, 0.0, 0.0, 1.686120739056222E9, 0.0, 2023-06-07 08:52:19.056
135.0, 32860.5065179475, 21301.97242521911, -2493.3147422450475, -490.8219564940878, 14550.225681093418, -60.59557921833745, -4017.2119757189726, -13224.364903493513, 0.002, -0.01, 0.974, 192.0, 0.0, 0.0, 0.0, 0.0, 0.0, 0.0, 0.0, 0.0, 0.0, 1.686120739060222E9, 0.0, 2023-06-07 08:52:19.060
136.0, 32867.41320698419, 21311.40486137925, -2486.0951287859834, -484.4070058354147, 14451.989764212343, -58.36040477280674, -4026.934984557031, -13234.222022798303, 0.002, -0.01, 0.974, 192.0, 0.0, 0.0, 0.0, 0.0, 0.0, 0.0, 0.0, 0.0, 0.0, 1.686120739064201E9, 0.0, 2023-06-07 08:52:19.064
137.0, 32842.11103226078, 21295.93745421618, -2512.4031320098798, -467.82201144957685, 14607.133222476628, -2.3692849122625486, -3905.6097156536243, -13105.408919502368, 0.002, -0.01, 0.974, 192.0, 0.0, 0.0, 0.0, 0.0, 0.0, 0.0, 0.0, 0.0, 0.0, 1.686120739068229E9, 0.0, 2023-06-07 08:52:19.068
138.0, 32804.135418431215, 21260.487587510062, -2549.976414439251, -468.76078471669973, 14796.676015457633, 27.179721257653387, -3820.069589623164, -13018.237116126671, 0.002, -0.01, 0.974, 192.0, 0.0, 0.0, 0.0, 0.0, 0.0, 0.0, 0.0, 0.0, 0.0, 1.686120739073236E9, 0.0, 2023-06-07 08:52:19.073
139.0, 32816.42887788163, 21265.87435792379, -2535.783056710131, -488.5197268151912, 14758.141608016684, -16.58499438583784, -3892.645703869546, -13097.854029876475, 0.008, -0.012, 0.978, 192.0, 0.0, 64.0, 255.0, 160.0, 30.0, 144.0, 0.0, 0.0, 0.0, 1.686120739077288E9, 0.0, 2023-06-07 08:52:19.077
140.0, 32859.6571516582, 21300.45250659615, -2495.0581783125613, -505.4176456234033, 14538.982753632397, -64.01539611999942, -4018.12839724164, -13234.981982109784, 0.008, -0.012, 0.978, 192.0, 0.0, 0.0, 0.0, 0.0, 0.0, 0.0, 0.0, 0.0, 0.0, 1.686120739080201E9, 0.0, 2023-06-07 08:52:19.080
141.0, 32877.49384373353, 21322.536030117994, -2473.6675588688327, -495.24760189623856, 14441.886775718544, -45.575206944371104, -4010.238231448917, -13229.818729140608, 0.008, -0.012, 0.978, 192.0, 0.0, 0.0, 0.0, 0.0, 0.0, 0.0, 0.0, 0.0, 0.0, 1.686120739084207E9, 0.0, 2023-06-07 08:52:19.084
142.0, 32834.73495659053, 21289.433096579683, -2515.934707633818, -482.88708721245376, 14594.929170004032, 4.872680291256939, -3895.394968437549, -13095.596503686489, 0.008, -0.012, 0.978, 192.0, 0.0, 0.0, 0.0, 0.0, 0.0, 0.0, 0.0, 0.0, 0.0, 1.686120739088214E9, 0.0, 2023-06-07 08:52:19.088
143.0, 32801.52026432994, 21259.995849132043, -2545.7295829927425, -485.27872386917164, 14777.677032670623, 8.873642548756903, -3836.386363075538, -13021.38871209487, 0.008, -0.012, 0.978, 192.0, 0.0, 0.0, 0.0, 0.0, 0.0, 0.0, 0.0, 0.0, 0.0, 1.686120739092344E9, 0.0, 2023-06-07 08:52:19.092
144.0, 32812.53967434641, 21261.62752647728, -2537.750010222198, -495.22525015178326, 14744.238822965483, -28.096142780320978, -3906.5037854318366, -13097.094070564995, 0.008, -0.012, 0.978, 192.0, 0.0, 0.0, 0.0, 0.0, 0.0, 0.0, 0.0, 0.0, 0.0, 1.686120739096324E9, 0.0, 2023-06-07 08:52:19.096
145.0, 32862.18289878165, 21302.35240487485, -2492.487727700201, -498.93563973136423, 14536.524061742313, -58.69568093963635, -4011.1546529715843, -13221.392121480958, 0.008, -0.012, 0.978, 192.0, 0.0, 0.0, 0.0, 0.0, 0.0, 0.0, 0.0, 0.0, 0.0, 1.686120739100362E9, 0.0, 2023-06-07 08:52:19.100
146.0, 32879.147872823225, 21320.949056261667, -2475.589808891989, -484.25054362422753, 14440.791540240234, -55.63349194925928, -4017.1449204856067, -13228.857604129029, 0.008, -0.012, 0.978, 192.0, 0.0, 0.0, 0.0, 0.0, 0.0, 0.0, 0.0, 0.0, 0.0, 1.686120739105336E9, 0.0, 2023-06-07 08:52:19.105
147.0, 32837.93125604764, 21289.634262279782, -2517.566384979056, -478.34968308802644, 14585.36262337716, -19.55777639839368, -3917.791416381767, -13113.567306228555, 0.008, -0.012, 0.978, 192.0, 0.0, 0.0, 0.0, 0.0, 0.0, 0.0, 0.0, 0.0, 0.0, 1.686120739108357E9, 0.0, 2023-06-07 08:52:19.108
148.0, 32799.307441628865, 21257.939488642158, -2551.943367951318, -497.1922036638503, 14762.656660396655, -4.850328546801633, -3847.6069387921025, -13039.448921614758, 0.008, -0.012, 0.978, 192.0, 0.0, 0.0, 0.0, 0.0, 0.0, 0.0, 0.0, 0.0, 0.0, 1.686120739112342E9, 0.0, 2023-06-07 08:52:19.112
149.0, 32816.518284859456, 21267.036648635465, -2532.9220334198517, -515.0288957391854, 14727.810290790832, -30.97951781505559, -3906.9284685764874, -13110.683931193822, 0.008, -0.008, 0.978, 192.0, 0.0, 64.0, 255.0, 192.0, 30.0, 144.0, 0.0, 0.0, 0.0, 1.686120739116455E9, 0.0, 2023-06-07 08:52:19.116
150.0, 32867.748483151016, 21304.431117109194, -2492.197155022282, -507.6081165800234, 14521.838965635177, -67.47991651057202, -4021.771731587855, -13231.562165208123, 0.008, -0.008, 0.978, 192.0, 0.0, 0.0, 0.0, 0.0, 0.0, 0.0, 0.0, 0.0, 0.0, 1.686120739120461E9, 0.0, 2023-06-07 08:52:19.120
151.0, 32867.59202093983, 21309.996701478565, -2486.363349719447, -482.5965145345348, 14434.24247911483, -57.9357216281559, -4025.929156056542, -13233.774987909197, 0.008, -0.008, 0.978, 192.0, 0.0, 0.0, 0.0, 0.0, 0.0, 0.0, 0.0, 0.0, 0.0, 1.686120739124456E9, 0.0, 2023-06-07 08:52:19.124
152.0, 32815.467752870056, 21272.088142882367, -2530.7986176965974, -461.0270811351635, 14596.672606071545, -10.371209427262476, -3912.20348026794, -13108.113480581462, 0.008, -0.008, 0.978, 192.0, 0.0, 0.0, 0.0, 0.0, 0.0, 0.0, 0.0, 0.0, 0.0, 1.686120739129484E9, 0.0, 2023-06-07 08:52:19.129
153.0, 32780.10729314176, 21239.566354699895, -2565.4438216023236, -473.4993545412248, 14787.198875808583, 6.660819847681505, -3833.458284551893, -13027.647200542355, 0.008, -0.008, 0.978, 192.0, 0.0, 0.0, 0.0, 0.0, 0.0, 0.0, 0.0, 0.0, 0.0, 1.686120739132474E9, 0.0, 2023-06-07 08:52:19.132
154.0, 32813.500799357986, 21261.940450899656, -2539.269928845159, -482.17183138988395, 14766.657622654157, -15.44505541861718, -3883.257971198317, -13092.914294351853, 0.008, -0.008, 0.978, 192.0, 0.0, 0.0, 0.0, 0.0, 0.0, 0.0, 0.0, 0.0, 0.0, 1.686120739136463E9, 0.0, 2023-06-07 08:52:19.136
155.0, 32872.68821867564, 21313.66238756924, -2481.915352572841, -482.7529767457219, 14556.752390474367, -53.957111115111246, -3995.7990045307884, -13224.342551749058, 0.008, -0.008, 0.978, 192.0, 0.0, 0.0, 0.0, 0.0, 0.0, 0.0, 0.0, 0.0, 0.0, 1.686120739140461E9, 0.0, 2023-06-07 08:52:19.140
156.0, 32882.25476530251, 21328.45924239865, -2469.353672188958, -471.91238068489804, 14455.677802047469, -56.23698904955257, -4009.1876994595173, -13237.641839699965, 0.008, -0.008, 0.978, 192.0, 0.0, 0.0, 0.0, 0.0, 0.0, 0.0, 0.0, 0.0, 0.0, 1.68612073914548E9, 0.0, 2023-06-07 08:52:19.145
157.0, 32835.22669496854, 21290.662442524725, -2516.9628878787626, -460.8035636906104, 14604.205143952984, -19.490721165027757, -3908.2248697548953, -13116.78595743012, 0.008, -0.008, 0.978, 192.0, 0.0, 0.0, 0.0, 0.0, 0.0, 0.0, 0.0, 0.0, 0.0, 1.686120739148472E9, 0.0, 2023-06-07 08:52:19.148
158.0, 32800.425028851634, 21257.671267708694, -2553.709155763287, -475.9803981757639, 14788.852904898276, -4.380941913240184, -3839.627366021558, -13037.258450658137, 0.008, -0.008, 0.978, 192.0, 0.0, 0.0, 0.0, 0.0, 0.0, 0.0, 0.0, 0.0, 0.0, 1.686120739151472E9, 0.0, 2023-06-07 08:52:19.151
159.0, 32830.21990421056, 21280.335936586373, -2522.9978588816953, -492.0960059280403, 14760.756762117955, -28.274956735963436, -3899.910020817521, -13103.978407857228, 0.01, -0.01, 0.976, 192.0, 0.0, 80.0, 255.0, 176.0, 30.0, 128.0, 0.0, 0.0, 0.0, 1.686120739156476E9, 0.0, 2023-06-07 08:52:19.156
160.0, 32874.185785554146, 21314.243532925073, -2481.8035938505645, -499.9861717207637, 14548.482245025903, -68.23987582205247, -4015.0215047623524, -13237.172453066403, 0.01, -0.01, 0.976, 192.0, 0.0, 0.0, 0.0, 0.0, 0.0, 0.0, 0.0, 0.0, 0.0, 1.686120739160468E9, 0.0, 2023-06-07 08:52:19.160
161.0, 32871.79414889743, 21313.46122186914, -2483.7705473626315, -494.4652908403028, 14445.798330998223, -67.61402697730387, -4027.0690950237627, -13254.405648041446, 0.01, -0.01, 0.976, 192.0, 0.0, 0.0, 0.0, 0.0, 0.0, 0.0, 0.0, 0.0, 0.0, 1.68612073916446E9, 0.0, 2023-06-07 08:52:19.164
162.0, 32820.92157851715, 21276.089105139865, -2530.4186380408573, -479.06493891059625, 14597.231399682929, -24.18458750064224, -3915.0198000693085, -13134.242669849715, 0.01, -0.01, 0.976, 192.0, 0.0, 0.0, 0.0, 0.0, 0.0, 0.0, 0.0, 0.0, 0.0, 1.68612073916859E9, 0.0, 2023-06-07 08:52:19.168
163.0, 32780.30845884186, 21240.527479711473, -2568.304844892603, -478.5732005325795, 14793.345605533792, -3.173947712653603, -3829.166749616474, -13048.479026374702, 0.01, -0.01, 0.976, 192.0, 0.0, 0.0, 0.0, 0.0, 0.0, 0.0, 0.0, 0.0, 0.0, 1.686120739172605E9, 0.0, 2023-06-07 08:52:19.172
164.0, 32794.01007819296, 21246.696561181136, -2555.072612175061, -491.6489710389342, 14771.575006434323, -31.404200959706422, -3887.9518375339317, -13115.713073696264, 0.01, -0.01, 0.976, 192.0, 0.0, 0.0, 0.0, 0.0, 0.0, 0.0, 0.0, 0.0, 0.0, 1.686120739177612E9, 0.0, 2023-06-07 08:52:19.177
165.0, 32850.71645387608, 21291.735326258582, -2502.0542743270726, -502.40016012193684, 14554.830140451211, -73.35842530231778, -4012.0934262387073, -13248.683601460887, 0.01, -0.01, 0.976, 192.0, 0.0, 0.0, 0.0, 0.0, 0.0, 0.0, 0.0, 0.0, 0.0, 1.686120739180586E9, 0.0, 2023-06-07 08:52:19.180
166.0, 32875.07985533236, 21316.54576260397, -2478.786108349098, -488.02798843717443, 14446.066551931686, -73.69370146914738, -4033.0146590488744, -13262.00524115625, 0.01, -0.01, 0.976, 192.0, 0.0, 0.0, 0.0, 0.0, 0.0, 0.0, 0.0, 0.0, 0.0, 1.686120739183589E9, 0.0, 2023-06-07 08:52:19.183
167.0, 32828.65528209868, 21281.677041253693, -2524.294260060103, -461.29530206862717, 14597.387861894114, -29.817227103379622, -3924.2063670404395, -13134.600297761, 0.01, -0.01, 0.976, 192.0, 0.0, 0.0, 0.0, 0.0, 0.0, 0.0, 0.0, 0.0, 0.0, 1.686120739188622E9, 0.0, 2023-06-07 08:52:19.188
168.0, 32779.034409407905, 21236.235944776054, -2572.9540077393067, -459.93184565685345, 14796.296035801894, -7.957221026089314, -3839.1132758990857, -13045.819168784521, 0.01, -0.01, 0.976, 192.0, 0.0, 0.0, 0.0, 0.0, 0.0, 0.0, 0.0, 0.0, 0.0, 1.686120739192599E9, 0.0, 2023-06-07 08:52:19.192
169.0, 32804.04601145339, 21253.558546728917, -2547.8977022049075, -475.22043886428344, 14771.999689578974, -29.07961953635449, -3890.8575643131217, -13112.06973935005, 0.008, -0.01, 0.972, 192.0, 0.0, 64.0, 255.0, 176.0, 30.0, 96.0, 0.0, 0.0, 0.0, 1.68612073919659E9, 0.0, 2023-06-07 08:52:19.196
170.0, 32854.69506438912, 21294.819866993414, -2495.080530057017, -482.7082732568113, 14560.842759709689, -62.9648641306, -4000.001132488386, -13239.988772867773, 0.008, -0.01, 0.972, 192.0, 0.0, 0.0, 0.0, 0.0, 0.0, 0.0, 0.0, 0.0, 0.0, 1.686120739199592E9, 0.0, 2023-06-07 08:52:19.199
171.0, 32877.44914024462, 21313.148297446765, -2477.1544310038607, -475.5110115422024, 14453.62144155758, -62.56253273040447, -4011.7357983274223, -13252.058714873638, 0.008, -0.01, 0.972, 192.0, 0.0, 0.0, 0.0, 0.0, 0.0, 0.0, 0.0, 0.0, 0.0, 1.686120739203612E9, 0.0, 2023-06-07 08:52:19.203
172.0, 32841.64164562722, 21289.276634368496, -2509.743274419698, -458.72485145626683, 14596.247922926894, -14.327468195851827, -3901.0276080402864, -13126.196041845804, 0.008, -0.01, 0.972, 192.0, 0.0, 0.0, 0.0, 0.0, 0.0, 0.0, 0.0, 0.0, 0.0, 1.686120739207727E9, 0.0, 2023-06-07 08:52:19.207
173.0, 32798.7933515064, 21252.73153218407, -2552.323347607058, -461.4517642798143, 14785.522494974435, 1.3858081562290379, -3829.7031914834015, -13042.175834438305, 0.008, -0.01, 0.972, 192.0, 0.0, 0.0, 0.0, 0.0, 0.0, 0.0, 0.0, 0.0, 0.0, 1.686120739211706E9, 0.0, 2023-06-07 08:52:19.211
174.0, 32797.80987475036, 21242.047398334435, -2556.6372342869327, -483.8258604795767, 14761.606128407257, -42.401259231717496, -3908.381331966082, -13123.625591233444, 0.008, -0.01, 0.972, 192.0, 0.0, 0.0, 0.0, 0.0, 0.0, 0.0, 0.0, 0.0, 0.0, 1.686120739216708E9, 0.0, 2023-06-07 08:52:19.216
175.0, 32858.807785368896, 21294.328128615398, -2493.806480623064, -504.97061073429717, 14542.201404833962, -82.74615797354674, -4024.5656996447683, -13258.6301277435, 0.008, -0.01, 0.972, 192.0, 0.0, 0.0, 0.0, 0.0, 0.0, 0.0, 0.0, 0.0, 0.0, 1.686120739220717E9, 0.0, 2023-06-07 08:52:19.220
176.0, 32877.87382338927, 21315.472878870118, -2474.6957391137767, -479.4896220552471, 14445.485406575848, -64.19421007564189, -4012.853385550188, -13254.964441652828, 0.008, -0.01, 0.972, 192.0, 0.0, 0.0, 0.0, 0.0, 0.0, 0.0, 0.0, 0.0, 0.0, 1.686120739224714E9, 0.0, 2023-06-07 08:52:19.224
177.0, 32834.77966007944, 21281.34176508686, -2520.874443158441, -445.44791524981446, 14599.444222384003, -7.018447758966418, -3888.510631145314, -13116.540088241112, 0.008, -0.01, 0.972, 192.0, 0.0, 0.0, 0.0, 0.0, 0.0, 0.0, 0.0, 0.0, 0.0, 1.686120739227712E9, 0.0, 2023-06-07 08:52:19.227
178.0, 32788.824473479326, 21240.773348900482, -2565.1756006688597, -452.37695603095966, 14789.679919443122, 5.789101813924529, -3820.494272767815, -13035.224441912706, 0.008, -0.01, 0.972, 192.0, 0.0, 0.0, 0.0, 0.0, 0.0, 0.0, 0.0, 0.0, 0.0, 1.686120739231718E9, 0.0, 2023-06-07 08:52:19.231
179.0, 32807.53288358842, 21252.619773461793, -2546.0648591595723, -458.3448718005266, 14776.894721614686, -24.58691890083777, -3884.1073374876187, -13101.854992133975, 0.006, -0.01, 0.968, 192.0, 0.0, 48.0, 255.0, 176.0, 30.0, 64.0, 0.0, 0.0, 0.0, 1.686120739235729E9, 0.0, 2023-06-07 08:52:19.235
180.0, 32853.17514576616, 21288.650785523747, -2502.9259923608297, -473.32054058558236, 14558.384067819605, -79.95218991663336, -4016.384961174126, -13244.369714781013, 0.006, -0.01, 0.968, 192.0, 0.0, 0.0, 0.0, 0.0, 0.0, 0.0, 0.0, 0.0, 0.0, 1.686120739239703E9, 0.0, 2023-06-07 08:52:19.239
181.0, 32882.567689724885, 21315.94226550368, -2477.1544310038607, -472.00178766271927, 14438.086979161142, -86.88123069777855, -4040.4130864635813, -13270.878883705007, 0.006, -0.01, 0.968, 192.0, 0.0, 0.0, 0.0, 0.0, 0.0, 0.0, 0.0, 0.0, 0.0, 1.686120739244741E9, 0.0, 2023-06-07 08:52:19.244
182.0, 32834.57849437934, 21280.224177864096, -2523.064914115061, -464.1786771033618, 14576.332518617215, -32.901767838211995, -3922.619393184113, -13147.966640945273, 0.006, -0.01, 0.968, 192.0, 0.0, 0.0, 0.0, 0.0, 0.0, 0.0, 0.0, 0.0, 0.0, 1.68612073924874E9, 0.0, 2023-06-07 08:52:19.248
183.0, 32793.87596772623, 21242.449729734628, -2562.493391334223, -463.7316422142556, 14772.647890168178, -3.1068924792876818, -3828.5409007717253, -13054.446942144268, 0.006, -0.01, 0.968, 192.0, 0.0, 0.0, 0.0, 0.0, 0.0, 0.0, 0.0, 0.0, 0.0, 1.686120739252858E9, 0.0, 2023-06-07 08:52:19.252
184.0, 32806.95173823259, 21247.30005828143, -2550.848132473008, -472.7617469741997, 14758.67804988361, -29.951337570111463, -3879.324064174183, -13116.048349863095, 0.006, -0.01, 0.968, 192.0, 0.0, 0.0, 0.0, 0.0, 0.0, 0.0, 0.0, 0.0, 0.0, 1.686120739255843E9, 0.0, 2023-06-07 08:52:19.255
185.0, 32853.89040158873, 21288.270805868007, -2498.96973359224, -488.07269192608504, 14543.58721299019, -79.16987886069762, -4004.9185162685535, -13260.95470916685, 0.006, -0.01, 0.968, 192.0, 0.0, 0.0, 0.0, 0.0, 0.0, 0.0, 0.0, 0.0, 0.0, 1.686120739259834E9, 0.0, 2023-06-07 08:52:19.259
186.0, 32871.79414889743, 21310.51079160104, -2474.8074978360532, -487.4468430813364, 14420.965542908376, -83.50611728502719, -4024.677458367045, -13286.972139712829, 0.006, -0.01, 0.968, 192.0, 0.0, 0.0, 0.0, 0.0, 0.0, 0.0, 0.0, 0.0, 0.0, 1.686120739263865E9, 0.0, 2023-06-07 08:52:19.263
187.0, 32838.57945663684, 21279.93360518618, -2521.5896989810108, -463.7092904698003, 14564.754314989366, -31.73947712653603, -3910.683561644979, -13157.935518972341, 0.006, -0.01, 0.968, 192.0, 0.0, 0.0, 0.0, 0.0, 0.0, 0.0, 0.0, 0.0, 0.0, 1.686120739267849E9, 0.0, 2023-06-07 08:52:19.267
188.0, 32794.077133426326, 21238.046436076933, -2572.171696683371, -468.9619504167975, 14761.717887129533, -12.740494339525025, -3831.468979295371, -13061.510093392146, 0.006, -0.01, 0.968, 192.0, 0.0, 0.0, 0.0, 0.0, 0.0, 0.0, 0.0, 0.0, 0.0, 1.686120739271845E9, 0.0, 2023-06-07 08:52:19.271
189.0, 32810.863293512266, 21250.20578506062, -2550.6022632839995, -491.06782568309615, 14746.205776477549, -43.45179122111693, -3889.1811834789737, -13127.939477913318, 0.008, -0.014, 0.972, 192.0, 0.0, 64.0, 255.0, 144.0, 30.0, 96.0, 0.0, 0.0, 0.0, 1.686120739276839E9, 0.0, 2023-06-07 08:52:19.276
190.0, 32856.97494232356, 21287.175570389696, -2504.2223935392376, -496.70046528583356, 14538.558070487747, -82.9249719291892, -4012.6745715945453, -13264.396877812967, 0.008, -0.014, 0.972, 192.0, 0.0, 0.0, 0.0, 0.0, 0.0, 0.0, 0.0, 0.0, 0.0, 1.686120739280856E9, 0.0, 2023-06-07 08:52:19.280
191.0, 32879.10316933432, 21310.644902067772, -2482.943532817785, -471.33123532906, 14435.293011104228, -79.12517537178701, -4026.13032175664, -13283.351157111068, 0.008, -0.014, 0.972, 192.0, 0.0, 0.0, 0.0, 0.0, 0.0, 0.0, 0.0, 0.0, 0.0, 1.686120739283861E9, 0.0, 2023-06-07 08:52:19.283
192.0, 32849.442404442125, 21288.270805868007, -2516.202928567282, -454.61213047649034, 14578.612396551658, -26.531520668449485, -3907.777834865789, -13159.634251550944, 0.008, -0.014, 0.972, 192.0, 0.0, 0.0, 0.0, 0.0, 0.0, 0.0, 0.0, 0.0, 0.0, 1.686120739287974E9, 0.0, 2023-06-07 08:52:19.287
193.0, 32814.1937034361, 21259.079427609377, -2551.36222259548, -454.4333165208479, 14782.572064706334, 7.443130903617252, -3812.1123685970747, -13056.905634034352, 0.008, -0.014, 0.972, 192.0, 0.0, 0.0, 0.0, 0.0, 0.0, 0.0, 0.0, 0.0, 0.0, 1.68612073929196E9, 0.0, 2023-06-07 08:52:19.291
194.0, 32828.43176465413, 21267.662497480214, -2535.157207865382, -464.96098815929753, 14775.531265202913, -11.04176176092169, -3864.3483953891273, -13113.276733550638, 0.008, -0.014, 0.972, 192.0, 0.0, 0.0, 0.0, 0.0, 0.0, 0.0, 0.0, 0.0, 0.0, 1.686120739296025E9, 0.0, 2023-06-07 08:52:19.296
195.0, 32875.92922162166, 21307.8285822664, -2484.977541563218, -475.913342942398, 14567.50357955737, -45.910483111200705, -3981.873867735132, -13248.95182239435, 0.008, -0.014, 0.972, 192.0, 0.0, 0.0, 0.0, 0.0, 0.0, 0.0, 0.0, 0.0, 0.0, 1.686120739299979E9, 0.0, 2023-06-07 08:52:19.299
196.0, 32885.69693394863, 21315.36112014784, -2479.9931025496844, -472.784098718655, 14450.179272911462, -49.71027966860291, -4007.3995599030927, -13275.05865991815, 0.008, -0.014, 0.972, 192.0, 0.0, 0.0, 0.0, 0.0, 0.0, 0.0, 0.0, 0.0, 0.0, 1.686120739303976E9, 0.0, 2023-06-07 08:52:19.303
197.0, 32843.22861948355, 21279.419515063706, -2525.009515882673, -456.3108630550937, 14585.630844310625, -10.95235478310046, -3911.622334912102, -13160.774190518165, 0.008, -0.014, 0.972, 192.0, 0.0, 0.0, 0.0, 0.0, 0.0, 0.0, 0.0, 0.0, 0.0, 1.686120739308973E9, 0.0, 2023-06-07 08:52:19.308
198.0, 32816.11595345926, 21259.884090409767, -2548.7023650052984, -453.785115931644, 14782.080326328318, 13.969840284566914, -3827.199796104407, -13065.645166116377, 0.008, -0.014, 0.972, 192.0, 0.0, 0.0, 0.0, 0.0, 0.0, 0.0, 0.0, 0.0, 0.0, 1.686120739311972E9, 0.0, 2023-06-07 08:52:19.311
199.0, 32833.282093200934, 21271.12701787079, -2529.971603151751, -470.75008997322203, 14775.128933802716, -11.26527920547476, -3882.9897502648537, -13122.060969121572, 0.006, -0.014, 0.972, 192.0, 0.0, 48.0, 255.0, 144.0, 30.0, 96.0, 0.0, 0.0, 0.0, 1.686120739315966E9, 0.0, 2023-06-07 08:52:19.315
200.0, 32887.57448048288, 21310.68960555668, -2480.8648205834415, -490.01729369369673, 14557.31118408575, -62.003739119021795, -4019.6036123756903, -13265.134485379993, 0.006, -0.014, 0.972, 192.0, 0.0, 0.0, 0.0, 0.0, 0.0, 0.0, 0.0, 0.0, 0.0, 1.686120739319965E9, 0.0, 2023-06-07 08:52:19.319
201.0, 32894.77174219749, 21319.071509727422, -2474.8074978360532, -491.06782568309615, 14429.235688356841, -71.14560260124237, -4052.4606767249916, -13297.991549729295, 0.006, -0.014, 0.972, 192.0, 0.0, 0.0, 0.0, 0.0, 0.0, 0.0, 0.0, 0.0, 0.0, 1.686120739323972E9, 0.0, 2023-06-07 08:52:19.323
202.0, 32862.31700924838, 21299.06669843992, -2506.6810854293212, -454.1650955873842, 14580.400536108082, 1.3187529228631167, -3911.1529482785404, -13158.673126539366, 0.006, -0.014, 0.972, 192.0, 0.0, 0.0, 0.0, 0.0, 0.0, 0.0, 0.0, 0.0, 0.0, 1.686120739328074E9, 0.0, 2023-06-07 08:52:19.328
203.0, 32826.46481114207, 21266.746075957548, -2542.5332835356335, -449.20300831830605, 14795.200800323582, 42.0883348093432, -3800.891792880511, -13047.652011829856, 0.006, -0.014, 0.972, 192.0, 0.0, 0.0, 0.0, 0.0, 0.0, 0.0, 0.0, 0.0, 0.0, 1.686120739332087E9, 0.0, 2023-06-07 08:52:19.332
204.0, 32845.732014862544, 21279.777142974992, -2520.9862018807175, -465.8774096819651, 14787.958835120064, 25.57039565687128, -3848.791581248234, -13102.570247956544, 0.006, -0.014, 0.972, 192.0, 0.0, 0.0, 0.0, 0.0, 0.0, 0.0, 0.0, 0.0, 0.0, 1.686120739336093E9, 0.0, 2023-06-07 08:52:19.336
205.0, 32883.484111247555, 21309.79553577847, -2483.524678173623, -477.9697034322862, 14574.544379060791, -22.619965388770748, -3982.387957857604, -13249.24239507227, 0.006, -0.014, 0.972, 192.0, 0.0, 0.0, 0.0, 0.0, 0.0, 0.0, 0.0, 0.0, 0.0, 1.686120739339085E9, 0.0, 2023-06-07 08:52:19.339
206.0, 32899.93499516666, 21325.17353596372, -2469.599541377967, -470.07953763956283, 14448.81581649969, -34.555796927904716, -4010.3946936601037, -13283.842895489086, 0.006, -0.014, 0.972, 192.0, 0.0, 0.0, 0.0, 0.0, 0.0, 0.0, 0.0, 0.0, 0.0, 1.68612073934409E9, 0.0, 2023-06-07 08:52:19.344
207.0, 32853.01868355497, 21289.254282624042, -2513.8112919105643, -452.5781217310574, 14582.345137875694, 9.90182279370103, -3902.2122504964177, -13167.435010365845, 0.006, -0.014, 0.972, 192.0, 0.0, 0.0, 0.0, 0.0, 0.0, 0.0, 0.0, 0.0, 0.0, 1.686120739348092E9, 0.0, 2023-06-07 08:52:19.348
208.0, 32823.581436107335, 21262.63335497777, -2544.611995769977, -447.1689995728731, 14787.78002116442, 40.54606444192701, -3811.7994441747005, -13067.500360906168, 0.006, -0.014, 0.972, 192.0, 0.0, 0.0, 0.0, 0.0, 0.0, 0.0, 0.0, 0.0, 0.0, 1.686120739352097E9, 0.0, 2023-06-07 08:52:19.352
209.0, 32843.83211658384, 21272.848102193846, -2528.205815339782, -455.28268281014954, 14788.83055315382, 24.94454681212268, -3854.938310973443, -13116.540088241112, 0.004, -0.012, 0.972, 192.0, 0.0, 32.0, 255.0, 160.0, 30.0, 96.0, 0.0, 0.0, 0.0, 1.686120739360041E9, 0.0, 2023-06-07 08:52:19.360
210.0, 32892.782436940965, 21311.78484103499, -2479.948399060774, -472.0911946405405, 14576.287815128306, -27.15736951319808, -3986.612437559657, -13256.90904342044, 0.004, -0.012, 0.972, 192.0, 0.0, 0.0, 0.0, 0.0, 0.0, 0.0, 0.0, 0.0, 0.0, 1.686120739360079E9, 0.0, 2023-06-07 08:52:19.360
211.0, 32909.3674313268, 21331.633190111304, -2459.496552884168, -475.3992528199259, 14440.165691395485, -38.02031731847731, -4025.5044729118913, -13295.91283749495, 0.004, -0.012, 0.972, 192.0, 0.0, 0.0, 0.0, 0.0, 0.0, 0.0, 0.0, 0.0, 0.0, 1.686120739364197E9, 0.0, 2023-06-07 08:52:19.364
212.0, 32869.89425061873, 21303.917026986725, -2497.047483569084, -451.8852176529429, 14572.376259848626, 11.309982694385374, -3920.451273971948, -13177.158019203904, 0.004, -0.012, 0.972, 192.0, 0.0, 0.0, 0.0, 0.0, 0.0, 0.0, 0.0, 0.0, 0.0, 1.686120739367255E9, 0.0, 2023-06-07 08:52:19.367
213.0, 32829.03526175443, 21270.07648588139, -2533.234957842226, -460.8259154350657, 14770.21155002255, 39.78610513044657, -3825.7469327148124, -13078.855047089464, 0.004, -0.012, 0.972, 192.0, 0.0, 0.0, 0.0, 0.0, 0.0, 0.0, 0.0, 0.0, 0.0, 1.686120739371223E9, 0.0, 2023-06-07 08:52:19.371
214.0, 32838.87002931476, 21273.36219231632, -2523.042562370606, -483.55763954611297, 14769.697459900077, 21.74824735501377, -3867.879971013066, -13130.621687247954, 0.004, -0.012, 0.972, 192.0, 0.0, 0.0, 0.0, 0.0, 0.0, 0.0, 0.0, 0.0, 0.0, 1.686120739376241E9, 0.0, 2023-06-07 08:52:19.376
215.0, 32885.428713015164, 21309.594370078372, -2479.724881616221, -478.8637732104985, 14574.700841271979, -17.926099053156264, -3982.544420068791, -13258.205444598849, 0.004, -0.012, 0.972, 192.0, 0.0, 0.0, 0.0, 0.0, 0.0, 0.0, 0.0, 0.0, 0.0, 1.686120739380228E9, 0.0, 2023-06-07 08:52:19.380
216.0, 32909.99328017155, 21333.242515712085, -2455.205017948749, -453.5168949981803, 14458.471770104381, -9.477139649050194, -3997.0507022202855, -13276.064488418639, 0.004, -0.012, 0.972, 192.0, 0.0, 0.0, 0.0, 0.0, 0.0, 0.0, 0.0, 0.0, 0.0, 1.686120739384204E9, 0.0, 2023-06-07 08:52:19.384
217.0, 32858.69602664662, 21294.529294315493, -2503.976524350229, -444.9338251273424, 14579.774687263332, 23.804607844902023, -3907.8895935880655, -13167.099734199017, 0.004, -0.012, 0.972, 192.0, 0.0, 0.0, 0.0, 0.0, 0.0, 0.0, 0.0, 0.0, 0.0, 1.686120739388227E9, 0.0, 2023-06-07 08:52:19.388
218.0, 32826.241293697516, 21265.203805590132, -2541.5498067796, -451.4158310193814, 14778.280529770915, 41.26132026449684, -3826.8421681931222, -13075.859913332453, 0.004, -0.012, 0.972, 192.0, 0.0, 0.0, 0.0, 0.0, 0.0, 0.0, 0.0, 0.0, 0.0, 1.686120739391209E9, 0.0, 2023-06-07 08:52:19.391
219.0, 32838.02066302546, 21269.11536086981, -2530.6645072298656, -463.21755209178355, 14781.543884461391, 18.507244408994246, -3874.585494349658, -13132.141605870916, 0.004, -0.012, 0.972, 192.0, 0.0, 0.0, 0.0, 0.0, 0.0, 0.0, 0.0, 0.0, 0.0, 1.686120739395202E9, 0.0, 2023-06-07 08:52:19.395
220.0, 32887.060390360406, 21306.420422365718, -2481.848297339475, -472.4711742962807, 14573.583254049214, -19.669535120670215, -3992.423891118037, -13267.079087147606, 0.01, -0.012, 0.974, 192.0, 0.0, 80.0, 255.0, 160.0, 30.0, 112.0, 0.0, 0.0, 0.0, 1.686120739399346E9, 0.0, 2023-06-07 08:52:19.399
221.0, 32907.15460862572, 21321.709015573146, -2465.9115035428413, -459.5965694900238, 14451.09569443413, -15.713276352080864, -4011.1099494826735, -13288.246189146781, 0.01, -0.012, 0.974, 192.0, 0.0, 0.0, 0.0, 0.0, 0.0, 0.0, 0.0, 0.0, 0.0, 1.686120739403351E9, 0.0, 2023-06-07 08:52:19.403
222.0, 32872.710570420095, 21299.178457162197, -2499.0814923145167, -442.65394719290106, 14580.221722152439, 30.845407348323747, -3898.747730105845, -13165.333946387047, 0.01, -0.012, 0.974, 192.0, 0.0, 0.0, 0.0, 0.0, 0.0, 0.0, 0.0, 0.0, 0.0, 1.68612073940837E9, 0.0, 2023-06-07 08:52:19.408
223.0, 32829.929331532636, 21262.387485788764, -2544.544940536611, -458.590740989535, 14777.766439648443, 51.52077096948278, -3814.8392814206222, -13072.39539294188, 0.01, -0.012, 0.974, 192.0, 0.0, 0.0, 0.0, 0.0, 0.0, 0.0, 0.0, 0.0, 0.0, 1.686120739412342E9, 0.0, 2023-06-07 08:52:19.412
224.0, 32840.52405840445, 21268.78008470298, -2530.485693274223, -467.84436319403216, 14780.716869916543, 24.899843323212068, -3863.6331395665575, -13124.564364500568, 0.01, -0.012, 0.974, 192.0, 0.0, 0.0, 0.0, 0.0, 0.0, 0.0, 0.0, 0.0, 0.0, 1.686120739416355E9, 0.0, 2023-06-07 08:52:19.416
225.0, 32886.94863163813, 21305.41459386523, -2482.9211810733295, -470.0348341506522, 14574.298509871784, -20.116570009776357, -3985.293684636794, -13257.5795957541, 0.01, -0.012, 0.974, 192.0, 0.0, 0.0, 0.0, 0.0, 0.0, 0.0, 0.0, 0.0, 0.0, 1.686120739419339E9, 0.0, 2023-06-07 08:52:19.419
226.0, 32904.315937079904, 21322.871306284822, -2467.1632012323385, -467.01734864918575, 14442.557328052204, -27.537349168938302, -4018.8660048086654, -13291.956578726362, 0.01, -0.012, 0.974, 192.0, 0.0, 0.0, 0.0, 0.0, 0.0, 0.0, 0.0, 0.0, 0.0, 1.686120739423339E9, 0.0, 2023-06-07 08:52:19.423
227.0, 32865.73682615004, 21298.01616645052, -2501.853108626975, -456.84730492202107, 14562.139160888097, 11.622907116759672, -3921.2112332834286, -13180.868408783486, 0.01, -0.012, 0.974, 192.0, 0.0, 0.0, 0.0, 0.0, 0.0, 0.0, 0.0, 0.0, 0.0, 1.68612073942748E9, 0.0, 2023-06-07 08:52:19.427
228.0, 32837.01483452497, 21273.20573010513, -2532.6761642308434, -457.07082236657413, 14759.01332605044, 39.093201052332056, -3828.272679838262, -13079.324433723026, 0.01, -0.012, 0.974, 192.0, 0.0, 0.0, 0.0, 0.0, 0.0, 0.0, 0.0, 0.0, 0.0, 1.686120739431464E9, 0.0, 2023-06-07 08:52:19.431
229.0, 32840.25583747099, 21270.45646553713, -2530.329231063036, -467.1291073714623, 14765.16005577565, 21.882357821745615, -3870.5398286032473, -13128.386512802424, 0.01, -0.012, 0.974, 192.0, 0.0, 0.0, 0.0, 0.0, 0.0, 0.0, 0.0, 0.0, 0.0, 1.686120739436465E9, 0.0, 2023-06-07 08:52:19.436
230.0, 32881.3606955243, 21303.894675242267, -2487.6373991533997, -487.1115669145068, 14554.047829395275, -25.235119490041672, -3993.2732574073384, -13266.900273191963, 0.006, -0.01, 0.976, 192.0, 0.0, 48.0, 255.0, 176.0, 30.0, 128.0, 0.0, 0.0, 0.0, 1.686120739440474E9, 0.0, 2023-06-07 08:52:19.440
231.0, 32896.761047454005, 21319.876172527813, -2473.041710024084, -481.79185173414373, 14422.865441187078, -31.94064282663379, -4023.8504438221985, -13298.662102062954, 0.006, -0.01, 0.976, 192.0, 0.0, 0.0, 0.0, 0.0, 0.0, 0.0, 0.0, 0.0, 0.0, 1.686120739443451E9, 0.0, 2023-06-07 08:52:19.443
232.0, 32857.71254989059, 21290.327166357896, -2510.7938064090977, -461.60822649100146, 14544.816558935234, 4.827976802346326, -3930.9789456103977, -13187.529228631167, 0.006, -0.01, 0.976, 192.0, 0.0, 0.0, 0.0, 0.0, 0.0, 0.0, 0.0, 0.0, 0.0, 1.686120739447448E9, 0.0, 2023-06-07 08:52:19.447
233.0, 32803.46486609756, 21244.617848946793, -2563.2757023901586, -463.99986314771934, 14746.809273577843, 14.68509610713674, -3853.8654272395884, -13092.266093762648, 0.006, -0.01, 0.976, 192.0, 0.0, 0.0, 0.0, 0.0, 0.0, 0.0, 0.0, 0.0, 0.0, 1.686120739451459E9, 0.0, 2023-06-07 08:52:19.451
234.0, 32823.581436107335, 21258.408875275716, -2546.2883766041255, -482.104776156518, 14747.457474167048, -10.88529954973454, -3900.804090595733, -13147.31844035607, 0.006, -0.01, 0.976, 192.0, 0.0, 0.0, 0.0, 0.0, 0.0, 0.0, 0.0, 0.0, 0.0, 1.686120739455469E9, 0.0, 2023-06-07 08:52:19.455
235.0, 32890.614317728796, 21307.44860261066, -2488.0620822980504, -503.11541594450665, 14534.82532916371, -51.453715736116855, -4020.989420531919, -13286.547456568178, 0.006, -0.01, 0.976, 192.0, 0.0, 0.0, 0.0, 0.0, 0.0, 0.0, 0.0, 0.0, 0.0, 1.686120739459484E9, 0.0, 2023-06-07 08:52:19.459
236.0, 32895.68816372015, 21314.31058815844, -2479.0319775381063, -494.040607695652, 14405.051100856197, -43.45179122111693, -4037.5297114288464, -13315.805890060174, 0.006, -0.01, 0.976, 192.0, 0.0, 0.0, 0.0, 0.0, 0.0, 0.0, 0.0, 0.0, 0.0, 1.68612073946348E9, 0.0, 2023-06-07 08:52:19.463
237.0, 32840.904038060195, 21277.609023762827, -2521.746161192198, -464.69276722583385, 14535.294715797272, 14.99802052951104, -3916.159739036529, -13187.03749025315, 0.006, -0.01, 0.976, 192.0, 0.0, 0.0, 0.0, 0.0, 0.0, 0.0, 0.0, 0.0, 0.0, 1.686120739468462E9, 0.0, 2023-06-07 08:52:19.468
238.0, 32810.63977606771, 21252.59742171734, -2548.389440582924, -464.1786771033618, 14738.20385196255, 35.025183561466164, -3820.9636594013764, -13082.900712835875, 0.006, -0.01, 0.976, 192.0, 0.0, 0.0, 0.0, 0.0, 0.0, 0.0, 0.0, 0.0, 0.0, 1.686120739471499E9, 0.0, 2023-06-07 08:52:19.471
239.0, 32825.68250008613, 21261.49341601055, -2534.2184345982596, -469.0513573946187, 14754.386514948192, 9.58889837132673, -3864.9518924894205, -13132.812158204575, 0.006, -0.01, 0.976, 192.0, 0.0, 0.0, 0.0, 0.0, 0.0, 0.0, 0.0, 0.0, 0.0, 1.686120739475467E9, 0.0, 2023-06-07 08:52:19.475
240.0, 32863.903983104705, 21289.991890191068, -2497.986256836207, -475.53336328665773, 14556.461817796448, -36.52275043997174, -3987.394748615593, -13266.185017369393, 0.004, -0.012, 0.97, 192.0, 0.0, 32.0, 255.0, 160.0, 30.0, 80.0, 0.0, 0.0, 0.0, 1.686120739479648E9, 0.0, 2023-06-07 08:52:19.479
241.0, 32884.69110544814, 21309.437907867185, -2479.8366403384975, -479.80254647762143, 14416.450490528405, -43.38473598775101, -4017.5919553747126, -13299.578523585622, 0.004, -0.012, 0.97, 192.0, 0.0, 0.0, 0.0, 0.0, 0.0, 0.0, 0.0, 0.0, 0.0, 1.686120739483569E9, 0.0, 2023-06-07 08:52:19.483
242.0, 32841.37342469376, 21274.39037256126, -2523.109617603972, -468.269046338683, 14532.299582040261, -10.304154193896556, -3927.849701386655, -13188.780926320664, 0.004, -0.012, 0.97, 192.0, 0.0, 0.0, 0.0, 0.0, 0.0, 0.0, 0.0, 0.0, 0.0, 1.686120739487607E9, 0.0, 2023-06-07 08:52:19.487
243.0, 32808.40460162218, 21245.310753024907, -2555.8996267199072, -470.5712760175796, 14735.991029261475, 17.94845079761157, -3839.1356276435413, -13088.153372782872, 0.004, -0.012, 0.97, 192.0, 0.0, 0.0, 0.0, 0.0, 0.0, 0.0, 0.0, 0.0, 0.0, 1.686120739491602E9, 0.0, 2023-06-07 08:52:19.491
244.0, 32824.22963669654, 21254.474968251583, -2541.974489924251, -487.0668634255962, 14747.569232889324, 0.26822093346368475, -3874.943122260943, -13134.55559427209, 0.004, -0.012, 0.97, 192.0, 0.0, 0.0, 0.0, 0.0, 0.0, 0.0, 0.0, 0.0, 0.0, 1.686120739496583E9, 0.0, 2023-06-07 08:52:19.496
245.0, 32864.1051488048, 21282.995794176557, -2504.267097028148, -488.16209890390627, 14551.11975087163, -45.709317411102944, -3995.7766527863328, -13270.610662771544, 0.004, -0.012, 0.97, 192.0, 0.0, 0.0, 0.0, 0.0, 0.0, 0.0, 0.0, 0.0, 0.0, 1.686120739500608E9, 0.0, 2023-06-07 08:52:19.500
246.0, 32886.43454151566, 21302.218294408118, -2482.0941665284836, -471.42064230688123, 14418.909182418489, -45.642262177737024, -4022.576394388246, -13302.372491642534, 0.004, -0.012, 0.97, 192.0, 0.0, 0.0, 0.0, 0.0, 0.0, 0.0, 0.0, 0.0, 0.0, 1.686120739503633E9, 0.0, 2023-06-07 08:52:19.503
247.0, 32867.77083489548, 21294.953977460144, -2500.8249283820305, -455.461496765792, 14534.199480318963, 2.928078523645225, -3914.975096580398, -13187.685690842354, 0.004, -0.012, 0.97, 192.0, 0.0, 0.0, 0.0, 0.0, 0.0, 0.0, 0.0, 0.0, 0.0, 1.686120739507596E9, 0.0, 2023-06-07 08:52:19.507
248.0, 32822.21797969556, 21260.35347704333, -2540.4992747902006, -460.8259154350657, 14740.349619430259, 25.27982297895229, -3824.942269914421, -13084.241817503193, 0.004, -0.012, 0.97, 192.0, 0.0, 0.0, 0.0, 0.0, 0.0, 0.0, 0.0, 0.0, 0.0, 1.686120739511573E9, 0.0, 2023-06-07 08:52:19.511
249.0, 32821.94975876209, 21255.793721174447, -2538.845245700508, -476.74035748724435, 14757.202834749562, -2.6598575901815407, -3874.3172734161944, -13135.69553323931, 0.004, -0.012, 0.97, 192.0, 0.0, 0.0, 0.0, 0.0, 0.0, 0.0, 0.0, 0.0, 0.0, 1.686120739515589E9, 0.0, 2023-06-07 08:52:19.515
250.0, 32868.44138722913, 21292.07060242541, -2492.7335968892094, -482.86473546799846, 14559.59106202019, -41.90952085370074, -3990.1440131835957, -13268.621357515021, 0.006, -0.016, 0.97, 192.0, 0.0, 48.0, 255.0, 128.0, 30.0, 80.0, 0.0, 0.0, 0.0, 1.686120739519726E9, 0.0, 2023-06-07 08:52:19.519
251.0, 32897.811579443405, 21316.165782948232, -2467.721994843721, -472.91820918538684, 14424.363008065584, -38.6014626743153, -4016.6531821075896, -13302.998340487284, 0.006, -0.016, 0.97, 192.0, 0.0, 0.0, 0.0, 0.0, 0.0, 0.0, 0.0, 0.0, 0.0, 1.686120739524718E9, 0.0, 2023-06-07 08:52:19.524
252.0, 32861.62410517027, 21290.573035546906, -2503.9318208613186, -462.92697941386456, 14536.479358253404, 0.8493662893016684, -3919.11016930463, -13195.307635701614, 0.006, -0.016, 0.97, 192.0, 0.0, 0.0, 0.0, 0.0, 0.0, 0.0, 0.0, 0.0, 0.0, 1.686120739527718E9, 0.0, 2023-06-07 08:52:19.527
253.0, 32824.341395418814, 21257.581860730872, -2541.7956759686085, -464.268084081183, 14740.439026408081, 14.550985640404898, -3834.3076508411946, -13096.267056020148, 0.006, -0.016, 0.97, 192.0, 0.0, 0.0, 0.0, 0.0, 0.0, 0.0, 0.0, 0.0, 0.0, 1.686120739530732E9, 0.0, 2023-06-07 08:52:19.530
254.0, 32826.3977559087, 21257.31363979741, -2535.2689665876587, -473.7452237302332, 14761.628480151712, -6.146729725209442, -3876.6418548395463, -13137.796597218108, 0.006, -0.016, 0.97, 192.0, 0.0, 0.0, 0.0, 0.0, 0.0, 0.0, 0.0, 0.0, 0.0, 1.686120739535768E9, 0.0, 2023-06-07 08:52:19.535
255.0, 32865.42390172767, 21286.92970120069, -2497.1592422913604, -492.81126175061013, 14557.534701530303, -54.71707042659169, -4006.349027913693, -13281.942997210384, 0.006, -0.016, 0.97, 192.0, 0.0, 0.0, 0.0, 0.0, 0.0, 0.0, 0.0, 0.0, 0.0, 1.686120739539737E9, 0.0, 2023-06-07 08:52:19.539
0.0, 32897.47630327658, 21319.60795159435, -2465.330358187003, -498.2427356532497, 14408.336807291129, -64.9094658982117, -4045.9339673440422, -13330.06630302266, 0.006, -0.016, 0.97, 192.0, 0.0, 0.0, 0.0, 0.0, 0.0, 0.0, 0.0, 0.0, 0.0, 1.686120739543764E9, 0.0, 2023-06-07 08:52:19.543
1.0, 32857.24316325702, 21293.523465815004, -2501.9648673492516, -490.77725300517716, 14513.412357975527, -25.816264845879658, -3955.4988092778694, -13226.600077939043, 0.006, -0.016, 0.97, 192.0, 0.0, 0.0, 0.0, 0.0, 0.0, 0.0, 0.0, 0.0, 0.0, 1.6861207395477E9, 0.0, 2023-06-07 08:52:19.547
2.0, 32816.80885753738, 21255.234927563066, -2545.3496033370025, -485.59164829154594, 14723.563459344323, -2.168119212164785, -3863.4766773553706, -13125.83841393452, 0.006, -0.016, 0.97, 192.0, 0.0, 0.0, 0.0, 0.0, 0.0, 0.0, 0.0, 0.0, 0.0, 1.686120739550734E9, 0.0, 2023-06-07 08:52:19.550
3.0, 32830.711642588576, 21261.49341601055, -2532.430295041835, -495.8510989965319, 14745.691686355078, -17.65787811969258, -3895.1490992485406, -13167.41265862139, 0.006, -0.016, 0.97, 192.0, 0.0, 0.0, 0.0, 0.0, 0.0, 0.0, 0.0, 0.0, 0.0, 1.686120739554851E9, 0.0, 2023-06-07 08:52:19.554
4.0, 32866.85441337281, 21293.143486159264, -2488.9561520762627, -507.65282006893403, 14548.59400374818, -55.477029738072126, -4003.9126877680646, -13293.498849093778, 0.006, -0.014, 0.972, 192.0, 0.0, 48.0, 255.0, 144.0, 30.0, 96.0, 0.0, 0.0, 0.0, 1.686120739558835E9, 0.0, 2023-06-07 08:52:19.558
5.0, 32894.659983475205, 21316.612817837336, -2468.4148989218356, -504.97061073429717, 14401.966560121366, -57.466334994594455, -4028.4101996910813, -13327.205279732381, 0.006, -0.014, 0.972, 192.0, 0.0, 0.0, 0.0, 0.0, 0.0, 0.0, 0.0, 0.0, 0.0, 1.686120739562836E9, 0.0, 2023-06-07 08:52:19.562
6.0, 32861.33353249235, 21292.160009403233, -2500.176727792827, -485.0552064246186, 14510.752500385344, -20.362439198784735, -3940.6572509595458, -13221.101548803039, 0.006, -0.014, 0.972, 192.0, 0.0, 0.0, 0.0, 0.0, 0.0, 0.0, 0.0, 0.0, 0.0, 1.686120739567858E9, 0.0, 2023-06-07 08:52:19.567
7.0, 32822.5979593513, 21261.001677632532, -2534.6431177429104, -479.86960171098735, 14721.283581409882, 11.86877630576805, -3844.0530114237085, -13112.896753894896, 0.006, -0.014, 0.972, 192.0, 0.0, 0.0, 0.0, 0.0, 0.0, 0.0, 0.0, 0.0, 0.0, 1.68612073957186E9, 0.0, 2023-06-07 08:52:19.571
8.0, 32812.4949708575, 21244.908421624714, -2545.7072312482874, -491.1795844053727, 14752.7324858585, -1.072883733854739, -3870.8304012811664, -13145.820873477564, 0.006, -0.014, 0.972, 192.0, 0.0, 0.0, 0.0, 0.0, 0.0, 0.0, 0.0, 0.0, 0.0, 1.686120739575852E9, 0.0, 2023-06-07 08:52:19.575
9.0, 32869.80484364091, 21289.16487564622, -2490.878402099419, -497.2145554083056, 14557.31118408575, -49.30794826840738, -3997.520088853847, -13284.558151311656, 0.006, -0.014, 0.972, 192.0, 0.0, 0.0, 0.0, 0.0, 0.0, 0.0, 0.0, 0.0, 0.0, 1.686120739578834E9, 0.0, 2023-06-07 08:52:19.578
10.0, 32906.975794670085, 21324.45828014115, -2457.2166749497264, -480.54015404464656, 14418.082167873643, -48.03389883445488, -4030.444208436514, -13321.796157574196, 0.006, -0.014, 0.972, 192.0, 0.0, 0.0, 0.0, 0.0, 0.0, 0.0, 0.0, 0.0, 0.0, 1.686120739582879E9, 0.0, 2023-06-07 08:52:19.582
11.0, 32869.17899479616, 21299.379622862296, -2492.2418585111927, -459.0377758786411, 14531.964305873431, 2.3469331678072414, -3926.866224630621, -13205.5670864066, 0.006, -0.014, 0.972, 192.0, 0.0, 0.0, 0.0, 0.0, 0.0, 0.0, 0.0, 0.0, 0.0, 1.686120739586855E9, 0.0, 2023-06-07 08:52:19.586
12.0, 32818.887569771716, 21256.77719793048, -2538.688783489321, -464.1563253589065, 14737.801520562354, 20.85417757680149, -3838.33096484315, -13105.49832648019, 0.006, -0.014, 0.972, 192.0, 0.0, 0.0, 0.0, 0.0, 0.0, 0.0, 0.0, 0.0, 0.0, 1.686120739590872E9, 0.0, 2023-06-07 08:52:19.590
13.0, 32825.97307276405, 21258.811206675913, -2532.3855915529243, -478.8190697215879, 14758.610994650246, 2.3692849122625486, -3877.044186239742, -13153.822797992563, 0.006, -0.014, 0.972, 192.0, 0.0, 0.0, 0.0, 0.0, 0.0, 0.0, 0.0, 0.0, 0.0, 1.686120739595842E9, 0.0, 2023-06-07 08:52:19.595
14.0, 32875.97392511057, 21296.809172249934, -2485.5139834301453, -495.8063955076213, 14555.277175340318, -41.32837549786276, -3999.4646906214584, -13296.002244472773, 0.012, -0.012, 0.974, 192.0, 0.0, 96.0, 255.0, 160.0, 30.0, 112.0, 0.0, 0.0, 0.0, 1.686120739599975E9, 0.0, 2023-06-07 08:52:19.599
15.0, 32905.299413835935, 21323.988893507587, -2460.569436618023, -484.719930257789, 14414.975275394354, -49.3750035017733, -4036.7697521173664, -13337.867061837562, 0.012, -0.012, 0.974, 192.0, 0.0, 0.0, 0.0, 0.0, 0.0, 0.0, 0.0, 0.0, 0.0, 1.686120739603963E9, 0.0, 2023-06-07 08:52:19.603
16.0, 32871.525927963965, 21299.983119962588, -2494.7005504012764, -466.8832381824539, 14523.068311580219, -6.504357636494356, -3936.298660790761, -13222.867336615007, 0.012, -0.012, 0.974, 192.0, 0.0, 0.0, 0.0, 0.0, 0.0, 0.0, 0.0, 0.0, 0.0, 1.686120739606965E9, 0.0, 2023-06-07 08:52:19.606
17.0, 32829.97403502155, 21263.05803812242, -2534.2407863427147, -474.54988653062424, 14725.195136689561, 18.753113598002624, -3836.8781014535552, -13118.082358608528, 0.012, -0.012, 0.974, 192.0, 0.0, 0.0, 0.0, 0.0, 0.0, 0.0, 0.0, 0.0, 0.0, 1.686120739610967E9, 0.0, 2023-06-07 08:52:19.610
18.0, 32831.6504158557, 21260.39818053224, -2531.3350595635247, -488.05034018162974, 14753.961831803541, -4.425645402150798, -3872.238561181851, -13158.94134747283, 0.012, -0.012, 0.974, 192.0, 0.0, 0.0, 0.0, 0.0, 0.0, 0.0, 0.0, 0.0, 0.0, 1.686120739614984E9, 0.0, 2023-06-07 08:52:19.614
19.0, 32879.639611201244, 21297.770297261515, -2487.011550308651, -496.65576179692295, 14557.802922463767, -51.788991902946464, -3998.4141586320593, -13296.426927617424, 0.012, -0.012, 0.974, 192.0, 0.0, 0.0, 0.0, 0.0, 0.0, 0.0, 0.0, 0.0, 0.0, 1.686120739618975E9, 0.0, 2023-06-07 08:52:19.618
20.0, 32904.40534405772, 21321.954884762155, -2459.6083116064447, -484.00467443521916, 14414.550592249703, -51.900750625223, -4034.355763716193, -13340.30340198319, 0.012, -0.012, 0.974, 192.0, 0.0, 0.0, 0.0, 0.0, 0.0, 0.0, 0.0, 0.0, 0.0, 1.686120739623967E9, 0.0, 2023-06-07 08:52:19.623
21.0, 32871.235355286044, 21303.067660697423, -2488.0620822980504, -459.86479042348753, 14522.129538313096, -1.095235478310046, -3930.911890377032, -13230.623391940999, 0.012, -0.012, 0.974, 192.0, 0.0, 0.0, 0.0, 0.0, 0.0, 0.0, 0.0, 0.0, 0.0, 1.686120739627999E9, 0.0, 2023-06-07 08:52:19.627
22.0, 32820.92157851715, 21260.420532276694, -2538.2417486002146, -463.17284860287293, 14728.14556695766, 19.69188686512552, -3840.1414561440297, -13127.090111624017, 0.012, -0.012, 0.974, 192.0, 0.0, 0.0, 0.0, 0.0, 0.0, 0.0, 0.0, 0.0, 0.0, 1.686120739632532E9, 0.0, 2023-06-07 08:52:19.632
23.0, 32831.71747108906, 21262.29807881094, -2531.0444868856057, -472.493526040736, 14758.543939416879, -1.8328430453351792, -3880.307540930217, -13166.384478376447, 0.012, -0.012, 0.974, 192.0, 0.0, 0.0, 0.0, 0.0, 0.0, 0.0, 0.0, 0.0, 0.0, 1.686120739635117E9, 0.0, 2023-06-07 08:52:19.635
24.0, 32885.24989905953, 21302.9782537196, -2481.021282794629, -488.78794774865486, 14557.154721874562, -46.58103544485992, -4005.36555115766, -13303.959465498861, 0.006, -0.014, 0.976, 192.0, 0.0, 48.0, 255.0, 144.0, 30.0, 128.0, 0.0, 0.0, 0.0, 1.686120739639131E9, 0.0, 2023-06-07 08:52:19.639
25.0, 32911.9155301947, 21329.286256943495, -2454.9367970152853, -484.8316889800655, 14409.14147009152, -39.98727083054433, -4031.382981703637, -13340.526919427744, 0.006, -0.014, 0.976, 192.0, 0.0, 0.0, 0.0, 0.0, 0.0, 0.0, 0.0, 0.0, 0.0, 1.686120739643096E9, 0.0, 2023-06-07 08:52:19.643
26.0, 32881.04777110193, 21308.11915494432, -2485.357521218958, -477.79088947664377, 14509.143174784564, 2.123415723254171, -3936.030439857297, -13234.512595476222, 0.006, -0.014, 0.976, 192.0, 0.0, 0.0, 0.0, 0.0, 0.0, 0.0, 0.0, 0.0, 0.0, 1.686120739647107E9, 0.0, 2023-06-07 08:52:19.647
27.0, 32838.177125236645, 21273.026916149487, -2523.8025216820865, -479.82489822207674, 14718.511965097425, 20.585956643337806, -3845.841150980133, -13129.727617469744, 0.006, -0.014, 0.976, 192.0, 0.0, 0.0, 0.0, 0.0, 0.0, 0.0, 0.0, 0.0, 0.0, 1.686120739651245E9, 0.0, 2023-06-07 08:52:19.651
28.0, 32827.6494535982, 21255.123168840786, -2536.9006439328964, -474.1028516415181, 14766.456456954058, 2.592802356815619, -3874.6972530719345, -13162.115295185482, 0.006, -0.014, 0.976, 192.0, 0.0, 0.0, 0.0, 0.0, 0.0, 0.0, 0.0, 0.0, 0.0, 1.686120739656093E9, 0.0, 2023-06-07 08:52:19.656
29.0, 32890.36844853979, 21308.767355533524, -2472.3711576904248, -480.6742645113784, 14569.559940047258, -40.38960223073986, -3996.0225219753415, -13299.220895674336, 0.006, -0.014, 0.976, 192.0, 0.0, 0.0, 0.0, 0.0, 0.0, 0.0, 0.0, 0.0, 0.0, 1.686120739660538E9, 0.0, 2023-06-07 08:52:19.660
30.0, 32903.399515557234, 21327.65457959826, -2453.953320259252, -476.2262673647723, 14421.077301630654, -40.72487839756947, -4031.9417753150196, -13340.616326405565, 0.006, -0.014, 0.976, 192.0, 0.0, 0.0, 0.0, 0.0, 0.0, 0.0, 0.0, 0.0, 0.0, 1.6861207396632E9, 0.0, 2023-06-07 08:52:19.663
31.0, 32854.00216031101, 21287.332032600883, -2507.038713340606, -463.3069590696048, 14526.041093592776, -0.24586918900837768, -3934.9352043789872, -13233.283249531181, 0.006, -0.014, 0.976, 192.0, 0.0, 0.0, 0.0, 0.0, 0.0, 0.0, 0.0, 0.0, 0.0, 1.686120739667106E9, 0.0, 2023-06-07 08:52:19.667
32.0, 32809.96922373405, 21249.758750171513, -2553.262120874181, -464.73747071474446, 14734.493462382969, 27.514997424482996, -3836.9228049424655, -13122.753873199686, 0.006, -0.014, 0.976, 192.0, 0.0, 0.0, 0.0, 0.0, 0.0, 0.0, 0.0, 0.0, 0.0, 1.686120739671072E9, 0.0, 2023-06-07 08:52:19.671
33.0, 32806.862331254764, 21241.44390123414, -2557.7548215096976, -482.976494190275, 14762.611956907745, 2.458691890083777, -3877.6029798511245, -13163.232882408249, 0.006, -0.014, 0.976, 192.0, 0.0, 0.0, 0.0, 0.0, 0.0, 0.0, 0.0, 0.0, 0.0, 1.686120739675233E9, 0.0, 2023-06-07 08:52:19.675
34.0, 32841.038148526924, 21266.656668979726, -2523.9366321488183, -503.04836071114073, 14564.486094055903, -44.72584065506943, -3997.542440598302, -13300.986683486306, 0.006, -0.012, 0.974, 192.0, 0.0, 48.0, 255.0, 160.0, 30.0, 112.0, 0.0, 0.0, 0.0, 1.686120739679246E9, 0.0, 2023-06-07 08:52:19.679
35.0, 32857.690198146134, 21283.509884299026, -2509.8997366308854, -491.6713227833895, 14421.345522564117, -52.101916325320765, -4033.7522666158998, -13347.053628808693, 0.006, -0.012, 0.974, 192.0, 0.0, 0.0, 0.0, 0.0, 0.0, 0.0, 0.0, 0.0, 0.0, 1.686120739684244E9, 0.0, 2023-06-07 08:52:19.684
36.0, 32827.80591580938, 21262.163968344208, -2539.046411400606, -463.3740143029707, 14524.476471480904, -10.393561171717785, -3941.2830998042946, -13244.660287458932, 0.006, -0.012, 0.974, 192.0, 0.0, 0.0, 0.0, 0.0, 0.0, 0.0, 0.0, 0.0, 0.0, 1.686120739687237E9, 0.0, 2023-06-07 08:52:19.687
37.0, 32784.86821471074, 21220.90264807971, -2579.4807171202565, -466.34679631552655, 14728.302029168848, 13.388694928728931, -3851.0267556937642, -13141.283469353137, 0.006, -0.012, 0.974, 192.0, 0.0, 0.0, 0.0, 0.0, 0.0, 0.0, 0.0, 0.0, 0.0, 1.68612073969022E9, 0.0, 2023-06-07 08:52:19.690
38.0, 32785.06938041084, 21220.47796493506, -2576.686749063343, -477.2097441208058, 14765.897663342676, 4.358590168784877, -3871.523305359281, -13168.105562699506, 0.006, -0.012, 0.974, 192.0, 0.0, 0.0, 0.0, 0.0, 0.0, 0.0, 0.0, 0.0, 0.0, 1.686120739695232E9, 0.0, 2023-06-07 08:52:19.695
39.0, 32829.370537921255, 21259.504110754027, -2532.229129341737, -479.2437528662387, 14578.83591399621, -33.5499684274159, -3976.5094490658585, -13287.888561235495, 0.006, -0.012, 0.974, 192.0, 0.0, 0.0, 0.0, 0.0, 0.0, 0.0, 0.0, 0.0, 0.0, 1.686120739699215E9, 0.0, 2023-06-07 08:52:19.699
40.0, 32859.09835804682, 21287.93552970118, -2501.8978121158852, -472.89585744093154, 14427.738121478335, -39.11555279678736, -4020.296516453805, -13330.803910589686, 0.006, -0.012, 0.974, 192.0, 0.0, 0.0, 0.0, 0.0, 0.0, 0.0, 0.0, 0.0, 0.0, 1.686120739703208E9, 0.0, 2023-06-07 08:52:19.703
41.0, 32822.21797969556, 21260.889918910256, -2537.414734055368, -470.3030550841159, 14520.497860967858, -9.320677437863045, -3938.8020561697554, -13237.775950166697, 0.006, -0.012, 0.974, 192.0, 0.0, 0.0, 0.0, 0.0, 0.0, 0.0, 0.0, 0.0, 0.0, 1.686120739707337E9, 0.0, 2023-06-07 08:52:19.707
42.0, 32794.3900578487, 21239.83457563336, -2563.2757023901586, -481.7024447563225, 14723.764625044421, 12.047590261410507, -3845.8635027245887, -13138.6012600185, 0.006, -0.012, 0.974, 192.0, 0.0, 0.0, 0.0, 0.0, 0.0, 0.0, 0.0, 0.0, 0.0, 1.686120739712337E9, 0.0, 2023-06-07 08:52:19.712
43.0, 32802.70490678608, 21240.214555289098, -2559.587664555033, -486.61982853649005, 14763.930709830609, -6.124377980754135, -3877.111241473108, -13172.955891246307, 0.006, -0.012, 0.974, 192.0, 0.0, 0.0, 0.0, 0.0, 0.0, 0.0, 0.0, 0.0, 0.0, 1.686120739715339E9, 0.0, 2023-06-07 08:52:19.715
44.0, 32844.88264857324, 21271.663459737716, -2519.0863036020164, -490.35256986052633, 14579.55116981878, -55.611140204803974, -4001.677513322534, -13307.356930656068, 0.008, -0.016, 0.974, 192.0, 0.0, 64.0, 255.0, 128.0, 30.0, 112.0, 0.0, 0.0, 0.0, 1.686120739718412E9, 0.0, 2023-06-07 08:52:19.718
45.0, 32870.11776806328, 21294.819866993414, -2493.068873056039, -492.90066872843136, 14421.054949886198, -67.34580604384018, -4047.5879964337346, -13359.347088259112, 0.008, -0.016, 0.974, 192.0, 0.0, 0.0, 0.0, 0.0, 0.0, 0.0, 0.0, 0.0, 0.0, 1.686120739723355E9, 0.0, 2023-06-07 08:52:19.723
46.0, 32837.97595953655, 21270.791741703957, -2527.267042072659, -472.0911946405405, 14518.866183622622, -23.402276444706494, -3946.4687045179257, -13246.113150848527, 0.008, -0.016, 0.974, 192.0, 0.0, 0.0, 0.0, 0.0, 0.0, 0.0, 0.0, 0.0, 0.0, 1.686120739727343E9, 0.0, 2023-06-07 08:52:19.727
47.0, 32798.748648017485, 21236.504165709517, -2566.8966849919184, -469.3195783280824, 14731.744197814965, 4.850328546801633, -3850.9597004603984, -13136.164919872872, 0.008, -0.016, 0.974, 192.0, 0.0, 0.0, 0.0, 0.0, 0.0, 0.0, 0.0, 0.0, 0.0, 1.686120739731352E9, 0.0, 2023-06-07 08:52:19.731
48.0, 32802.86136899726, 21238.225250032574, -2558.5371325656333, -479.9366569443533, 14769.608052922256, -20.496549665516575, -3892.0869102581637, -13179.28143492716, 0.008, -0.016, 0.974, 192.0, 0.0, 0.0, 0.0, 0.0, 0.0, 0.0, 0.0, 0.0, 0.0, 1.686120739737597E9, 0.0, 2023-06-07 08:52:19.737
49.0, 32853.488070188534, 21277.40785806273, -2511.1290825759274, -483.6246947794789, 14577.159533162063, -66.7870124324575, -4015.6697053515563, -13316.185869715915, 0.008, -0.016, 0.974, 192.0, 0.0, 0.0, 0.0, 0.0, 0.0, 0.0, 0.0, 0.0, 0.0, 1.686120739739482E9, 0.0, 2023-06-07 08:52:19.739
50.0, 32875.03515184345, 21297.479724583594, -2491.794823622087, -474.4381278083477, 14427.13462437804, -64.39537577573965, -4045.3751737326593, -13355.5025882128, 0.008, -0.016, 0.974, 192.0, 0.0, 0.0, 0.0, 0.0, 0.0, 0.0, 0.0, 0.0, 0.0, 1.686120739743453E9, 0.0, 2023-06-07 08:52:19.743
51.0, 32846.73784336303, 21278.92777668569, -2518.9521931352847, -469.49839228372485, 14516.698064410457, -18.283726964441176, -3945.5969864841686, -13247.968345638317, 0.008, -0.016, 0.974, 192.0, 0.0, 0.0, 0.0, 0.0, 0.0, 0.0, 0.0, 0.0, 0.0, 1.686120739746462E9, 0.0, 2023-06-07 08:52:19.746
52.0, 32794.09948517078, 21231.720892396082, -2571.4340891163456, -478.975531932775, 14728.257325679939, 14.819206573868582, -3839.202682876907, -13130.085245381028, 0.008, -0.016, 0.974, 192.0, 0.0, 0.0, 0.0, 0.0, 0.0, 0.0, 0.0, 0.0, 0.0, 1.686120739751465E9, 0.0, 2023-06-07 08:52:19.751
53.0, 32789.1373979017, 21223.607209158803, -2574.3398158955356, -485.1669651468951, 14777.431163481613, 3.598630857304437, -3860.168619175985, -13155.208606148793, 0.008, -0.016, 0.974, 192.0, 0.0, 0.0, 0.0, 0.0, 0.0, 0.0, 0.0, 0.0, 0.0, 1.686120739755455E9, 0.0, 2023-06-07 08:52:19.755
54.0, 32845.68731137363, 21270.791741703957, -2515.68883844481, -486.7762907476772, 14584.35679487667, -41.99892783152197, -3983.192620657995, -13289.72140428083, 0.008, -0.014, 0.974, 192.0, 0.0, 64.0, 255.0, 144.0, 30.0, 112.0, 0.0, 0.0, 0.0, 1.686120739759458E9, 0.0, 2023-06-07 08:52:19.759
55.0, 32858.69602664662, 21279.888901697268, -2506.5469749625895, -483.98232269076385, 14424.430063298949, -56.90754138321178, -4041.6647841530785, -13347.366553231068, 0.008, -0.014, 0.974, 192.0, 0.0, 0.0, 0.0, 0.0, 0.0, 0.0, 0.0, 0.0, 0.0, 1.686120739763485E9, 0.0, 2023-06-07 08:52:19.763
56.0, 32828.45411639859, 21259.77233168749, -2535.1795596098377, -470.9736074177751, 14514.127613798097, -15.914442052178629, -3951.944881909476, -13245.95668863734, 0.008, -0.014, 0.974, 192.0, 0.0, 0.0, 0.0, 0.0, 0.0, 0.0, 0.0, 0.0, 0.0, 1.686120739767461E9, 0.0, 2023-06-07 08:52:19.767
57.0, 32793.786560748405, 21231.653837162714, -2568.640121059432, -469.0290056501634, 14725.686875067579, 18.01550603097749, -3841.5049125558035, -13126.821890690553, 0.008, -0.014, 0.974, 192.0, 0.0, 0.0, 0.0, 0.0, 0.0, 0.0, 0.0, 0.0, 0.0, 1.686120739771444E9, 0.0, 2023-06-07 08:52:19.771
58.0, 32792.40075259218, 21226.9599708271, -2572.104641450005, -481.47892731176944, 14769.317480244337, -0.15646221118714942, -3867.7905640352446, -13156.75087651621, 0.008, -0.014, 0.974, 192.0, 0.0, 0.0, 0.0, 0.0, 0.0, 0.0, 0.0, 0.0, 0.0, 1.686120739774458E9, 0.0, 2023-06-07 08:52:19.774
59.0, 32838.13242174774, 21260.375828787786, -2530.4186380408573, -500.299096143138, 14577.561864562258, -53.443020992639184, -3996.7377777979113, -13297.29864565118, 0.008, -0.014, 0.974, 192.0, 0.0, 0.0, 0.0, 0.0, 0.0, 0.0, 0.0, 0.0, 0.0, 1.686120739778529E9, 0.0, 2023-06-07 08:52:19.778
60.0, 32872.33059076436, 21292.718803014614, -2496.041655068595, -495.51582282970224, 14416.22697308385, -60.84144840734582, -4039.9884033189305, -13347.947698586906, 0.008, -0.014, 0.974, 192.0, 0.0, 0.0, 0.0, 0.0, 0.0, 0.0, 0.0, 0.0, 0.0, 1.68612073978345E9, 0.0, 2023-06-07 08:52:19.783
61.0, 32841.9992735385, 21273.451599294138, -2524.5401292491115, -473.54405803013543, 14506.460965449925, -21.54708165491601, -3948.458009774448, -13251.611679984533, 0.008, -0.014, 0.974, 192.0, 0.0, 0.0, 0.0, 0.0, 0.0, 0.0, 0.0, 0.0, 0.0, 1.686120739787713E9, 0.0, 2023-06-07 08:52:19.787
62.0, 32799.86623524025, 21237.375883743272, -2565.399118113413, -462.16702010238413, 14724.85986052273, 11.377037927751294, -3840.230863121851, -13135.226146605748, 0.008, -0.014, 0.974, 192.0, 0.0, 0.0, 0.0, 0.0, 0.0, 0.0, 0.0, 0.0, 0.0, 1.68612073979159E9, 0.0, 2023-06-07 08:52:19.791
63.0, 32795.038258437904, 21230.7597673845, -2567.969568725773, -462.88227592495394, 14777.386459992704, -5.006790757988782, -3865.913017500999, -13162.539978330135, 0.008, -0.014, 0.974, 192.0, 0.0, 0.0, 0.0, 0.0, 0.0, 0.0, 0.0, 0.0, 0.0, 1.686120739794598E9, 0.0, 2023-06-07 08:52:19.794
64.0, 32845.732014862544, 21271.037610892967, -2520.516815247156, -476.9415231873421, 14583.909759987566, -54.426497748672695, -3989.5852195722127, -13305.30057016618, 0.006, -0.012, 0.978, 192.0, 0.0, 48.0, 255.0, 160.0, 30.0, 144.0, 0.0, 0.0, 0.0, 1.686120739798604E9, 0.0, 2023-06-07 08:52:19.798
65.0, 32874.6104686988, 21296.384489105283, -2494.2758672566256, -481.9930174342415, 14414.103557360597, -79.90748642772274, -4056.215769793483, -13374.479219255356, 0.006, -0.012, 0.978, 192.0, 0.0, 0.0, 0.0, 0.0, 0.0, 0.0, 0.0, 0.0, 0.0, 1.686120739802625E9, 0.0, 2023-06-07 08:52:19.802
66.0, 32848.503631175, 21281.49822729805, -2519.2427658132037, -477.4779650542695, 14492.424069931993, -41.57424468687114, -3966.7193849944338, -13278.76904949773, 0.006, -0.012, 0.978, 192.0, 0.0, 0.0, 0.0, 0.0, 0.0, 0.0, 0.0, 0.0, 0.0, 1.686120739806664E9, 0.0, 2023-06-07 08:52:19.806
67.0, 32800.492084085, 21237.82291863238, -2569.1318594374493, -481.9930174342415, 14705.547953313346, 4.805625057891018, -3840.610842777591, -13153.711039270287, 0.006, -0.012, 0.978, 192.0, 0.0, 0.0, 0.0, 0.0, 0.0, 0.0, 0.0, 0.0, 0.0, 1.686120739811589E9, 0.0, 2023-06-07 08:52:19.811
68.0, 32800.38032536273, 21229.10573829481, -2571.679958305354, -488.81029949311016, 14758.186311505595, -12.24875596150827, -3860.8615232540997, -13178.722641315777, 0.006, -0.012, 0.978, 192.0, 0.0, 0.0, 0.0, 0.0, 0.0, 0.0, 0.0, 0.0, 0.0, 1.686120739815589E9, 0.0, 2023-06-07 08:52:19.815
69.0, 32844.748538106505, 21266.254337579532, -2524.6071844824774, -493.19124140635034, 14574.477323827425, -71.05619562342115, -3989.428757361026, -13314.420081903945, 0.006, -0.012, 0.978, 192.0, 0.0, 0.0, 0.0, 0.0, 0.0, 0.0, 0.0, 0.0, 0.0, 1.686120739819616E9, 0.0, 2023-06-07 08:52:19.819
70.0, 32876.04098034394, 21298.39614610626, -2494.1194050454387, -491.9842472057638, 14409.454394513894, -83.77433821849087, -4043.0729440537625, -13371.729954687353, 0.006, -0.012, 0.978, 192.0, 0.0, 0.0, 0.0, 0.0, 0.0, 0.0, 0.0, 0.0, 0.0, 1.686120739822612E9, 0.0, 2023-06-07 08:52:19.822
71.0, 32844.346206706316, 21274.233910350074, -2526.7306002057317, -497.2369071527609, 14479.52711338128, -47.85508487881242, -3965.8029634717664, -13286.256883890259, 0.006, -0.012, 0.978, 192.0, 0.0, 0.0, 0.0, 0.0, 0.0, 0.0, 0.0, 0.0, 0.0, 1.686120739826709E9, 0.0, 2023-06-07 08:52:19.826
72.0, 32800.93911897411, 21236.079482564866, -2570.070632704572, -491.44780533883636, 14691.712223495511, -17.233194975041744, -3861.755593032312, -13171.03364122315, 0.006, -0.012, 0.978, 192.0, 0.0, 0.0, 0.0, 0.0, 0.0, 0.0, 0.0, 0.0, 0.0, 1.686120739830703E9, 0.0, 2023-06-07 08:52:19.830
73.0, 32778.52031928543, 21212.230171231055, -2589.1813742138597, -500.9920002212525, 14746.094017755273, -26.531520668449485, -3882.6991775869346, -13194.100641501027, 0.006, -0.012, 0.978, 192.0, 0.0, 0.0, 0.0, 0.0, 0.0, 0.0, 0.0, 0.0, 0.0, 1.686120739834712E9, 0.0, 2023-06-07 08:52:19.834
74.0, 32828.20824720958, 21250.384599016263, -2541.1921788683153, -511.40791313742557, 14564.486094055903, -68.0387101219547, -3999.509394110369, -13327.093521010105, 0.008, -0.014, 0.97, 192.0, 0.0, 64.0, 255.0, 144.0, 30.0, 80.0, 0.0, 0.0, 0.0, 1.686120739838769E9, 0.0, 2023-06-07 08:52:19.838
75.0, 32870.4083407412, 21290.282462868985, -2502.3671987494467, -489.2126308933057, 14411.309589303684, -66.69760545463627, -4032.0088305483855, -13371.148809331515, 0.008, -0.014, 0.97, 192.0, 0.0, 0.0, 0.0, 0.0, 0.0, 0.0, 0.0, 0.0, 0.0, 1.686120739843716E9, 0.0, 2023-06-07 08:52:19.843
76.0, 32849.442404442125, 21275.418552806208, -2526.7306002057317, -470.86184869549857, 14492.714642609912, -25.749209612513738, -3941.6407277155795, -13272.264691861235, 0.008, -0.014, 0.97, 192.0, 0.0, 0.0, 0.0, 0.0, 0.0, 0.0, 0.0, 0.0, 0.0, 1.686120739847756E9, 0.0, 2023-06-07 08:52:19.847
77.0, 32801.63202305222, 21238.314657010396, -2567.589589070033, -470.54892427312427, 14704.072738179297, 9.119511737765281, -3841.5049125558035, -13157.60024280551, 0.008, -0.014, 0.97, 192.0, 0.0, 0.0, 0.0, 0.0, 0.0, 0.0, 0.0, 0.0, 0.0, 1.686120739850773E9, 0.0, 2023-06-07 08:52:19.850
78.0, 32788.623307779235, 21226.177659771165, -2574.853906018008, -481.7471482452331, 14756.375820204714, -10.684133849636776, -3873.758479804812, -13186.948083275329, 0.008, -0.014, 0.97, 192.0, 0.0, 0.0, 0.0, 0.0, 0.0, 0.0, 0.0, 0.0, 0.0, 1.686120739854726E9, 0.0, 2023-06-07 08:52:19.854
79.0, 32838.73591884803, 21266.142578857252, -2528.563443251067, -487.200973892328, 14577.897140729088, -50.76081165800234, -3988.0429492047965, -13314.643599348497, 0.008, -0.014, 0.97, 192.0, 0.0, 0.0, 0.0, 0.0, 0.0, 0.0, 0.0, 0.0, 0.0, 1.686120739858733E9, 0.0, 2023-06-07 08:52:19.858
80.0, 32869.89425061873, 21291.042422180464, -2502.25544002717, -472.4488225518254, 14423.983028409843, -51.43136399166155, -4020.587089131724, -13361.291690026725, 0.008, -0.014, 0.97, 192.0, 0.0, 0.0, 0.0, 0.0, 0.0, 0.0, 0.0, 0.0, 0.0, 1.686120739862859E9, 0.0, 2023-06-07 08:52:19.862
81.0, 32842.13338400524, 21271.68581148217, -2531.4468182858013, -448.0630693510854, 14513.568820186714, -12.986363528533403, -3926.7991693972554, -13261.647613244964, 0.008, -0.014, 0.97, 192.0, 0.0, 0.0, 0.0, 0.0, 0.0, 0.0, 0.0, 0.0, 0.0, 1.686120739866877E9, 0.0, 2023-06-07 08:52:19.866
82.0, 32801.02852595193, 21238.672284921682, -2570.942350738329, -452.1534385864066, 14721.06006396533, 10.527671638449627, -3833.5029880408038, -13157.153207916404, 0.008, -0.014, 0.97, 192.0, 0.0, 0.0, 0.0, 0.0, 0.0, 0.0, 0.0, 0.0, 0.0, 1.686120739870846E9, 0.0, 2023-06-07 08:52:19.870
83.0, 32798.70394452858, 21230.111566795298, -2573.535153095145, -467.2408660937388, 14770.658584911656, -10.058285004888178, -3865.1754099339737, -13185.85284779702, 0.008, -0.014, 0.97, 192.0, 0.0, 0.0, 0.0, 0.0, 0.0, 0.0, 0.0, 0.0, 0.0, 1.686120739875824E9, 0.0, 2023-06-07 08:52:19.875
84.0, 32847.475450930055, 21265.0696951234, -2527.2446903282034, -479.1319941439622, 14586.144934433096, -54.85118089332353, -3976.062414176752, -13317.281105194224, 0.008, -0.014, 0.97, 192.0, 0.0, 0.0, 0.0, 0.0, 0.0, 0.0, 0.0, 0.0, 0.0, 1.686120739878887E9, 0.0, 2023-06-07 08:52:19.878
85.0, 32878.05263734492, 21293.948148959655, -2497.0251318246287, -476.203915620317, 14417.56807775117, -61.78022167446872, -4021.41410367657, -13375.97678613386, 0.006, -0.016, 0.972, 192.0, 0.0, 48.0, 255.0, 128.0, 30.0, 96.0, 0.0, 0.0, 0.0, 1.686120739882852E9, 0.0, 2023-06-07 08:52:19.882
86.0, 32851.43170969864, 21279.710087741627, -2514.4818442442233, -468.7384329722444, 14488.57956988568, -24.229290989552855, -3938.645593958568, -13285.116944923038, 0.006, -0.016, 0.972, 192.0, 0.0, 0.0, 0.0, 0.0, 0.0, 0.0, 0.0, 0.0, 0.0, 1.686120739886846E9, 0.0, 2023-06-07 08:52:19.886
87.0, 32798.748648017485, 21236.928848854168, -2564.102716935005, -460.51299101269143, 14709.995950459952, 16.473235663561304, -3821.723618712857, -13156.773228260665, 0.006, -0.016, 0.972, 192.0, 0.0, 0.0, 0.0, 0.0, 0.0, 0.0, 0.0, 0.0, 0.0, 1.686120739890852E9, 0.0, 2023-06-07 08:52:19.890
88.0, 32789.83030197982, 21224.747148126025, -2572.596379828022, -467.41968004938127, 14770.770343633932, 4.827976802346326, -3837.8392264651334, -13173.782905791153, 0.006, -0.016, 0.972, 192.0, 0.0, 0.0, 0.0, 0.0, 0.0, 0.0, 0.0, 0.0, 0.0, 1.686120739894967E9, 0.0, 2023-06-07 08:52:19.894
89.0, 32844.01093053948, 21267.327221313386, -2524.137797848916, -476.3156743425935, 14587.21781816695, -40.501360953016395, -3956.236416844895, -13305.412328888457, 0.006, -0.016, 0.972, 192.0, 0.0, 0.0, 0.0, 0.0, 0.0, 0.0, 0.0, 0.0, 0.0, 1.686120739898964E9, 0.0, 2023-06-07 08:52:19.898
90.0, 32874.07402683187, 21295.825695493902, -2497.8521463694747, -473.7675754746885, 14419.959714407887, -53.621834948281645, -4015.9155745405646, -13369.472428497367, 0.006, -0.016, 0.972, 192.0, 0.0, 0.0, 0.0, 0.0, 0.0, 0.0, 0.0, 0.0, 0.0, 1.686120739903962E9, 0.0, 2023-06-07 08:52:19.903
91.0, 32842.446308427614, 21274.59153826136, -2527.1105798614717, -464.6033602480126, 14493.653415877036, -23.089352022332196, -3941.461913759937, -13279.596064042576, 0.006, -0.016, 0.972, 192.0, 0.0, 0.0, 0.0, 0.0, 0.0, 0.0, 0.0, 0.0, 0.0, 1.68612073990697E9, 0.0, 2023-06-07 08:52:19.906
92.0, 32816.495933115, 21250.071674593888, -2554.8937982194184, -468.6937294833338, 14697.85895322072, 7.085502992332339, -3838.398020076516, -13167.390306876936, 0.006, -0.016, 0.972, 192.0, 0.0, 0.0, 0.0, 0.0, 0.0, 0.0, 0.0, 0.0, 0.0, 1.686120739910055E9, 0.0, 2023-06-07 08:52:19.910
93.0, 32808.739877789005, 21239.20872678861, -2565.689690791332, -494.3535321180263, 14745.691686355078, -10.19239547162002, -3864.460154111404, -13195.955836290817, 0.006, -0.016, 0.972, 192.0, 0.0, 0.0, 0.0, 0.0, 0.0, 0.0, 0.0, 0.0, 0.0, 1.686120739914987E9, 0.0, 2023-06-07 08:52:19.914
94.0, 32843.429785183645, 21275.127980128287, -2519.8909664024077, -505.61881132350106, 14562.742657988389, -58.5392187284492, -3983.3490828691824, -13329.462805922367, 0.006, -0.016, 0.972, 192.0, 0.0, 0.0, 0.0, 0.0, 0.0, 0.0, 0.0, 0.0, 0.0, 1.68612073991897E9, 0.0, 2023-06-07 08:52:19.918
95.0, 32865.870936616775, 21298.127925172797, -2492.39832072238, -482.50710755671355, 14409.47674625835, -61.17672457417543, -4032.3441067152153, -13379.530713502254, 0.01, -0.01, 0.972, 192.0, 0.0, 80.0, 255.0, 176.0, 30.0, 96.0, 0.0, 0.0, 0.0, 1.686120739922975E9, 0.0, 2023-06-07 08:52:19.922
96.0, 32843.0498055279, 21279.48657029707, -2519.533338491123, -462.88227592495394, 14490.546523397748, -20.943584554622717, -3943.6300329721016, -13280.49013382079, 0.01, -0.01, 0.972, 192.0, 0.0, 0.0, 0.0, 0.0, 0.0, 0.0, 0.0, 0.0, 0.0, 1.686120739927006E9, 0.0, 2023-06-07 08:52:19.927
97.0, 32805.051839953885, 21248.037665848457, -2556.167847653371, -456.44497352182555, 14706.531430069379, 17.412008930684202, -3826.2163193483734, -13157.376725360959, 0.01, -0.01, 0.972, 192.0, 0.0, 0.0, 0.0, 0.0, 0.0, 0.0, 0.0, 0.0, 0.0, 1.686120739931009E9, 0.0, 2023-06-07 08:52:19.931
98.0, 32812.249101668494, 21247.344761770342, -2553.5526935521, -458.47898226725846, 14771.060916311852, 10.035933260432872, -3831.7372002288344, -13170.720716800775, 0.01, -0.01, 0.972, 192.0, 0.0, 0.0, 0.0, 0.0, 0.0, 0.0, 0.0, 0.0, 0.0, 1.686120739933951E9, 0.0, 2023-06-07 08:52:19.933
99.0, 32851.87874458775, 21272.646936493747, -2518.192233823804, -481.9706656897862, 14585.809658266266, -39.92021559717841, -3954.8282569442104, -13308.809794045663, 0.01, -0.01, 0.972, 192.0, 0.0, 0.0, 0.0, 0.0, 0.0, 0.0, 0.0, 0.0, 0.0, 1.686120739938078E9, 0.0, 2023-06-07 08:52:19.938
100.0, 32871.99531459753, 21296.943282716667, -2490.6325329104106, -475.30984584210466, 14413.254191071295, -51.72193666958054, -4012.451054149992, -13370.12062908657, 0.01, -0.01, 0.972, 192.0, 0.0, 0.0, 0.0, 0.0, 0.0, 0.0, 0.0, 0.0, 0.0, 1.686120739943118E9, 0.0, 2023-06-07 08:52:19.943
101.0, 32842.46866017207, 21278.704259241138, -2519.622745468944, -455.61795897697914, 14483.885703550066, -17.635526375237273, -3932.9682508669202, -13280.266616376235, 0.01, -0.01, 0.972, 192.0, 0.0, 0.0, 0.0, 0.0, 0.0, 0.0, 0.0, 0.0, 0.0, 1.686120739947113E9, 0.0, 2023-06-07 08:52:19.947
102.0, 32791.909014214165, 21234.134880797254, -2567.4778303477565, -462.85992418049864, 14687.219522859994, 3.531575623938516, -3840.9908224333317, -13173.917016257885, 0.01, -0.01, 0.972, 192.0, 0.0, 0.0, 0.0, 0.0, 0.0, 0.0, 0.0, 0.0, 0.0, 1.686120739951086E9, 0.0, 2023-06-07 08:52:19.951
103.0, 32795.12766541573, 21231.564430184895, -2565.5108768356895, -470.81714520658795, 14748.351543945259, -5.431473902639616, -3853.4183923504825, -13189.116202487494, 0.01, -0.01, 0.972, 192.0, 0.0, 0.0, 0.0, 0.0, 0.0, 0.0, 0.0, 0.0, 0.0, 1.686120739955086E9, 0.0, 2023-06-07 08:52:19.955
104.0, 32843.09450901682, 21267.707200969126, -2520.8297396695307, -483.51293605720235, 14568.442352824493, -42.15539004270912, -3963.031347159308, -13314.308323181669, 0.01, -0.01, 0.972, 192.0, 0.0, 0.0, 0.0, 0.0, 0.0, 0.0, 0.0, 0.0, 0.0, 1.686120739958129E9, 0.0, 2023-06-07 08:52:19.958
105.0, 32862.6075819263, 21284.515712799515, -2501.1602045488603, -476.8074127206103, 14402.190077565918, -53.28655878145204, -4021.905842054587, -13373.518094243776, 0.01, -0.012, 0.974, 192.0, 0.0, 80.0, 255.0, 160.0, 30.0, 112.0, 0.0, 0.0, 0.0, 1.686120739962087E9, 0.0, 2023-06-07 08:52:19.962
106.0, 32841.68634911613, 21269.11536086981, -2526.305917061081, -470.75008997322203, 14464.43968587395, -21.994116544022148, -3946.2228353289174, -13287.06154669065, 0.01, -0.012, 0.974, 192.0, 0.0, 0.0, 0.0, 0.0, 0.0, 0.0, 0.0, 0.0, 0.0, 1.686120739966091E9, 0.0, 2023-06-07 08:52:19.966
107.0, 32802.54844457489, 21237.644104676736, -2562.716908778776, -466.23503759325, 14675.350746554226, 9.253622204497123, -3841.95194744491, -13168.396135377425, 0.01, -0.012, 0.974, 192.0, 0.0, 0.0, 0.0, 0.0, 0.0, 0.0, 0.0, 0.0, 0.0, 1.686120739970083E9, 0.0, 2023-06-07 08:52:19.970
108.0, 32791.6407932807, 21222.936656825146, -2575.6362170739435, -478.37203483248175, 14737.063912995329, -9.991229771522256, -3862.806125021711, -13189.920865287884, 0.01, -0.012, 0.974, 192.0, 0.0, 0.0, 0.0, 0.0, 0.0, 0.0, 0.0, 0.0, 0.0, 1.686120739975095E9, 0.0, 2023-06-07 08:52:19.975
109.0, 32835.74078509102, 21261.605174732827, -2527.289393817114, -488.76559600419955, 14557.780570719311, -59.14271582874249, -3983.237324146906, -13327.473500665845, 0.01, -0.012, 0.974, 192.0, 0.0, 0.0, 0.0, 0.0, 0.0, 0.0, 0.0, 0.0, 0.0, 1.686120739979229E9, 0.0, 2023-06-07 08:52:19.979
110.0, 32867.815538384384, 21291.243587880563, -2494.2535155121705, -477.1873923763505, 14392.824696639145, -53.73359367055818, -4026.4655979234694, -13384.60455949361, 0.01, -0.012, 0.974, 192.0, 0.0, 0.0, 0.0, 0.0, 0.0, 0.0, 0.0, 0.0, 0.0, 1.686120739983208E9, 0.0, 2023-06-07 08:52:19.983
111.0, 32851.387006209734, 21278.9724801746, -2515.7335419337205, -460.4235840348702, 14459.701116049424, -7.30902043688541, -3940.4784370039033, -13289.207314158359, 0.01, -0.012, 0.974, 192.0, 0.0, 0.0, 0.0, 0.0, 0.0, 0.0, 0.0, 0.0, 0.0, 1.686120739986204E9, 0.0, 2023-06-07 08:52:19.986
112.0, 32808.471656855545, 21240.214555289098, -2561.5993215560106, -457.18258108885067, 14670.254548818417, 21.14475025472048, -3837.4368950649377, -13168.507894099701, 0.01, -0.012, 0.974, 192.0, 0.0, 0.0, 0.0, 0.0, 0.0, 0.0, 0.0, 0.0, 0.0, 1.68612073999039E9, 0.0, 2023-06-07 08:52:19.990
113.0, 32810.52801734543, 21240.81805238939, -2556.7266412647537, -460.0212526346747, 14740.05904675234, 19.647183376214908, -3849.2833196262504, -13178.65558608241, 0.01, -0.012, 0.974, 192.0, 0.0, 0.0, 0.0, 0.0, 0.0, 0.0, 0.0, 0.0, 0.0, 1.686120739994232E9, 0.0, 2023-06-07 08:52:19.994
114.0, 32838.199476981106, 21263.05803812242, -2524.5177775046564, -478.6402557659454, 14564.64255626709, -24.408104945195312, -3971.3685478411376, -13316.074110993637, 0.01, -0.012, 0.974, 192.0, 0.0, 0.0, 0.0, 0.0, 0.0, 0.0, 0.0, 0.0, 0.0, 1.686120739998242E9, 0.0, 2023-06-07 08:52:19.998
115.0, 32869.53662270744, 21292.07060242541, -2492.3759689779245, -479.04258716614095, 14388.51080995927, -43.049459820921406, -4039.586071918735, -13390.058385140705, 0.006, -0.012, 0.972, 192.0, 0.0, 48.0, 255.0, 160.0, 30.0, 96.0, 0.0, 0.0, 0.0, 1.686120740003331E9, 0.0, 2023-06-07 08:52:20.003
116.0, 32854.91858183367, 21282.057020909433, -2509.1621290638604, -459.17188634537297, 14456.124836936575, -7.040799503421725, -3962.8972366925764, -13297.29864565118, 0.006, -0.012, 0.972, 192.0, 0.0, 0.0, 0.0, 0.0, 0.0, 0.0, 0.0, 0.0, 0.0, 1.686120740007219E9, 0.0, 2023-06-07 08:52:20.007
117.0, 32795.57470030483, 21231.564430184895, -2564.9297314798514, -464.67041548137854, 14670.701583707523, 31.314793981885195, -3852.52432257227, -13175.191065691837, 0.006, -0.012, 0.972, 192.0, 0.0, 0.0, 0.0, 0.0, 0.0, 0.0, 0.0, 0.0, 0.0, 1.686120740011204E9, 0.0, 2023-06-07 08:52:20.011
118.0, 32800.40267710718, 21229.9104010952, -2564.2591791461923, -469.5877992615461, 14739.76847407442, 26.151541012709263, -3853.4854475838483, -13185.495219885734, 0.006, -0.012, 0.972, 192.0, 0.0, 0.0, 0.0, 0.0, 0.0, 0.0, 0.0, 0.0, 0.0, 1.686120740016363E9, 0.0, 2023-06-07 08:52:20.016
119.0, 32840.0993752598, 21259.571165987392, -2525.5683094940555, -484.69757851333367, 14561.245091109884, -21.77059909946908, -3977.805850244266, -13322.600820374588, 0.006, -0.012, 0.972, 192.0, 0.0, 0.0, 0.0, 0.0, 0.0, 0.0, 0.0, 0.0, 0.0, 1.686120740018361E9, 0.0, 2023-06-07 08:52:20.018
120.0, 32869.02253258497, 21289.276634368496, -2492.912410844852, -483.49058431274705, 14386.007414580276, -37.327413240362795, -4040.614252163679, -13391.824172952674, 0.006, -0.012, 0.972, 192.0, 0.0, 0.0, 0.0, 0.0, 0.0, 0.0, 0.0, 0.0, 0.0, 1.68612074002234E9, 0.0, 2023-06-07 08:52:20.022
121.0, 32848.0565962859, 21276.916119684713, -2513.4313122548238, -463.1504968584176, 14453.643793302035, 4.738569824525097, -3953.330690065705, -13295.465802605844, 0.006, -0.012, 0.972, 192.0, 0.0, 0.0, 0.0, 0.0, 0.0, 0.0, 0.0, 0.0, 0.0, 1.686120740026362E9, 0.0, 2023-06-07 08:52:20.026
122.0, 32803.42016260864, 21234.9618953421, -2563.767440768175, -461.87644742446514, 14668.578167984268, 37.6626894071924, -3847.4728283253708, -13174.878141269463, 0.006, -0.012, 0.972, 192.0, 0.0, 0.0, 0.0, 0.0, 0.0, 0.0, 0.0, 0.0, 0.0, 1.686120740031342E9, 0.0, 2023-06-07 08:52:20.031
123.0, 32799.55331081788, 21227.58581967185, -2568.550714081611, -472.7170434852891, 14737.153319973151, 24.72102936756961, -3860.90622674301, -13192.08898450005, 0.006, -0.012, 0.972, 192.0, 0.0, 0.0, 0.0, 0.0, 0.0, 0.0, 0.0, 0.0, 0.0, 1.686120740035425E9, 0.0, 2023-06-07 08:52:20.035
124.0, 32839.2500089705, 21254.139692084755, -2531.7373909637204, -484.96579944679735, 14561.334498087705, -26.62092764627071, -3985.9195334815427, -13329.373398944546, 0.006, -0.012, 0.972, 192.0, 0.0, 0.0, 0.0, 0.0, 0.0, 0.0, 0.0, 0.0, 0.0, 1.686120740038366E9, 0.0, 2023-06-07 08:52:20.038
125.0, 32869.93895410764, 21285.745058744556, -2497.8297946250195, -478.5284970436689, 14385.985062835822, -42.22244527607504, -4051.23133077995, -13399.267303856292, 0.006, -0.012, 0.976, 192.0, 0.0, 48.0, 255.0, 160.0, 30.0, 128.0, 0.0, 0.0, 0.0, 1.686120740042475E9, 0.0, 2023-06-07 08:52:20.042
126.0, 32844.65913112869, 21269.271823081, -2522.081437359028, -462.6587584804009, 14448.122912421575, -12.651087361703798, -3973.491963564392, -13307.289875422703, 0.006, -0.012, 0.976, 192.0, 0.0, 0.0, 0.0, 0.0, 0.0, 0.0, 0.0, 0.0, 0.0, 1.686120740046454E9, 0.0, 2023-06-07 08:52:20.046
127.0, 32798.905110228676, 21227.92109583868, -2569.981225726751, -455.5732554880685, 14667.170008083584, 18.730761853547317, -3863.744898288834, -13182.768307062186, 0.006, -0.012, 0.976, 192.0, 0.0, 0.0, 0.0, 0.0, 0.0, 0.0, 0.0, 0.0, 0.0, 1.686120740050452E9, 0.0, 2023-06-07 08:52:20.050
128.0, 32785.65052576668, 21213.258351475997, -2580.3077316651024, -474.99692141973037, 14732.459453637535, 4.582107613337948, -3882.3415496756497, -13205.90236257343, 0.006, -0.012, 0.976, 192.0, 0.0, 0.0, 0.0, 0.0, 0.0, 0.0, 0.0, 0.0, 0.0, 1.686120740054504E9, 0.0, 2023-06-07 08:52:20.054
129.0, 32834.198514723605, 21258.20770957562, -2522.103789103483, -493.88414548446485, 14551.544434016281, -48.1009540678208, -4009.947658770998, -13350.652259665998, 0.006, -0.012, 0.976, 192.0, 0.0, 0.0, 0.0, 0.0, 0.0, 0.0, 0.0, 0.0, 0.0, 1.686120740058488E9, 0.0, 2023-06-07 08:52:20.058
130.0, 32882.83591065835, 21304.073489197912, -2475.813326336542, -472.87350569647623, 14385.60508318008, -56.61696870529279, -4064.262397797394, -13412.298370873736, 0.006, -0.012, 0.976, 192.0, 0.0, 0.0, 0.0, 0.0, 0.0, 0.0, 0.0, 0.0, 0.0, 1.686120740063471E9, 0.0, 2023-06-07 08:52:20.063
131.0, 32863.211079026594, 21287.421439578706, -2510.302068031081, -451.751107186211, 14458.516473593292, 1.8998982787011003, -3966.5629227832464, -13308.765090556752, 0.006, -0.012, 0.976, 192.0, 0.0, 0.0, 0.0, 0.0, 0.0, 0.0, 0.0, 0.0, 0.0, 1.686120740066525E9, 0.0, 2023-06-07 08:52:20.066
132.0, 32806.862331254764, 21237.57704944337, -2571.568199583078, -443.30214778210495, 14677.742383210943, 46.35751800030685, -3846.5117033137926, -13177.269777926182, 0.006, -0.012, 0.976, 192.0, 0.0, 0.0, 0.0, 0.0, 0.0, 0.0, 0.0, 0.0, 0.0, 1.686120740070473E9, 0.0, 2023-06-07 08:52:20.070
133.0, 32780.084941397305, 21206.418717672674, -2600.1560807414153, -456.73554619974453, 14751.167863746628, 21.97176479956684, -3873.2443896823397, -13195.844077568541, 0.006, -0.012, 0.976, 192.0, 0.0, 0.0, 0.0, 0.0, 0.0, 0.0, 0.0, 0.0, 0.0, 1.686120740074488E9, 0.0, 2023-06-07 08:52:20.074
134.0, 32814.68544181412, 21229.552773183917, -2566.047318702617, -479.5343255441577, 14574.74554476089, -26.017430545977422, -3998.7941382877993, -13331.899146067995, 0.006, -0.012, 0.976, 192.0, 0.0, 0.0, 0.0, 0.0, 0.0, 0.0, 0.0, 0.0, 0.0, 1.686120740078465E9, 0.0, 2023-06-07 08:52:20.078
135.0, 32842.669825872166, 21253.11151183981, -2541.683917246332, -478.8637732104985, 14398.099708330597, -33.77348587196897, -4053.913540114587, -13399.22260036738, 0.006, -0.014, 0.978, 192.0, 0.0, 48.0, 255.0, 144.0, 30.0, 144.0, 0.0, 0.0, 0.0, 1.686120740082446E9, 0.0, 2023-06-07 08:52:20.082
136.0, 32823.46967738506, 21239.141671555244, -2564.616807057477, -464.849229437021, 14457.801217770722, 8.873642548756903, -3957.9575011679535, -13302.104270709071, 0.006, -0.014, 0.978, 192.0, 0.0, 0.0, 0.0, 0.0, 0.0, 0.0, 0.0, 0.0, 0.0, 1.686120740086491E9, 0.0, 2023-06-07 08:52:20.086
137.0, 32782.76715073194, 21206.217551972575, -2603.397083687435, -464.06691838108526, 14667.885263906153, 47.58686394534874, -3838.1745026319627, -13172.642966823933, 0.006, -0.014, 0.978, 192.0, 0.0, 0.0, 0.0, 0.0, 0.0, 0.0, 0.0, 0.0, 0.0, 1.686120740091592E9, 0.0, 2023-06-07 08:52:20.091
138.0, 32765.310438312346, 21186.883293018735, -2620.3397059845574, -462.18937184683944, 14750.899642813165, 34.01935506097735, -3852.077287683164, -13181.091926228039, 0.006, -0.014, 0.978, 192.0, 0.0, 0.0, 0.0, 0.0, 0.0, 0.0, 0.0, 0.0, 0.0, 1.686120740094583E9, 0.0, 2023-06-07 08:52:20.094
139.0, 32813.3443371468, 21224.25540974801, -2570.9870542272397, -464.8715811814763, 14584.200332665485, -13.455750162094851, -3964.059527404252, -13307.625151589531, 0.006, -0.014, 0.978, 192.0, 0.0, 0.0, 0.0, 0.0, 0.0, 0.0, 0.0, 0.0, 0.0, 1.68612074009759E9, 0.0, 2023-06-07 08:52:20.097
140.0, 32847.36369220778, 21255.905479896723, -2535.492484032212, -456.3108630550937, 14409.588504980626, -26.442113690628254, -4025.1468450006064, -13377.496704756823, 0.006, -0.014, 0.978, 192.0, 0.0, 0.0, 0.0, 0.0, 0.0, 0.0, 0.0, 0.0, 0.0, 1.686120740102592E9, 0.0, 2023-06-07 08:52:20.102
141.0, 32821.45802038408, 21238.180546543666, -2561.1522866669043, -445.78319141664406, 14463.52326435128, 3.553927368393823, -3955.8564371891543, -13297.96919798484, 0.006, -0.014, 0.978, 192.0, 0.0, 0.0, 0.0, 0.0, 0.0, 0.0, 0.0, 0.0, 0.0, 1.686120740106587E9, 0.0, 2023-06-07 08:52:20.106
142.0, 32783.88473795471, 21205.47994440555, -2602.257144720214, -452.2651973086831, 14669.561644740303, 35.472218450572306, -3846.6458137805243, -13180.913112272396, 0.006, -0.014, 0.978, 192.0, 0.0, 0.0, 0.0, 0.0, 0.0, 0.0, 0.0, 0.0, 0.0, 1.686120740110601E9, 0.0, 2023-06-07 08:52:20.110
143.0, 32781.29193559789, 21198.752069324502, -2606.2581069777143, -459.2165898342836, 14749.737352101489, 31.58301491534888, -3849.3503748596163, -13186.99278676424, 0.006, -0.014, 0.978, 192.0, 0.0, 0.0, 0.0, 0.0, 0.0, 0.0, 0.0, 0.0, 0.0, 1.686120740114619E9, 0.0, 2023-06-07 08:52:20.114
144.0, 32824.83313379683, 21238.135843054755, -2554.64792903041, -471.42064230688123, 14580.199370407983, -8.873642548756903, -3960.393841313582, -13312.609590603066, 0.006, -0.014, 0.978, 192.0, 0.0, 0.0, 0.0, 0.0, 0.0, 0.0, 0.0, 0.0, 0.0, 1.686120740119601E9, 0.0, 2023-06-07 08:52:20.119
145.0, 32838.82532582585, 21253.20091881763, -2538.3088038335804, -470.23599985075, 14397.51856297476, -28.856102091801418, -4031.1818160035396, -13390.393661307533, 0.008, -0.014, 0.976, 192.0, 0.0, 64.0, 255.0, 144.0, 30.0, 128.0, 0.0, 0.0, 0.0, 1.686120740122622E9, 0.0, 2023-06-07 08:52:20.122
146.0, 32809.58924407831, 21223.294284736432, -2576.8655630189855, -466.05622363760756, 14443.227880385863, -5.945564025111679, -3975.838896732199, -13323.517241897254, 0.008, -0.014, 0.976, 192.0, 0.0, 0.0, 0.0, 0.0, 0.0, 0.0, 0.0, 0.0, 0.0, 1.686120740125608E9, 0.0, 2023-06-07 08:52:20.125
147.0, 32773.938211672095, 21194.9522727671, -2610.8849180799625, -470.9959591622304, 14647.522824707368, 16.294421707918847, -3880.4416513969486, -13213.94899057734, 0.008, -0.014, 0.976, 192.0, 0.0, 0.0, 0.0, 0.0, 0.0, 0.0, 0.0, 0.0, 0.0, 1.686120740130748E9, 0.0, 2023-06-07 08:52:20.130
148.0, 32761.018903376927, 21183.262310416976, -2621.703162396331, -495.3593606185151, 14717.461433108025, 14.103950751298756, -3879.301712429728, -13217.771138879198, 0.008, -0.014, 0.976, 192.0, 0.0, 0.0, 0.0, 0.0, 0.0, 0.0, 0.0, 0.0, 0.0, 1.686120740134755E9, 0.0, 2023-06-07 08:52:20.134
149.0, 32809.365726633754, 21223.026063802965, -2572.596379828022, -511.2067474373278, 14547.252899080862, -10.214747216075327, -3971.100326907674, -13330.513337911767, 0.008, -0.014, 0.976, 192.0, 0.0, 0.0, 0.0, 0.0, 0.0, 0.0, 0.0, 0.0, 0.0, 1.686120740138718E9, 0.0, 2023-06-07 08:52:20.138
150.0, 32840.434651426636, 21251.68100019467, -2543.9861469252287, -493.7723867621883, 14373.713955129857, -26.084485779343343, -4037.7532288733996, -13399.267303856292, 0.008, -0.014, 0.976, 192.0, 0.0, 0.0, 0.0, 0.0, 0.0, 0.0, 0.0, 0.0, 0.0, 1.686120740142722E9, 0.0, 2023-06-07 08:52:20.142
151.0, 32827.47063964255, 21246.00365710302, -2559.6323680439436, -458.16605784488416, 14433.035484914242, 0.8270145448463613, -3966.6299780166128, -13312.095500480593, 0.008, -0.014, 0.976, 192.0, 0.0, 0.0, 0.0, 0.0, 0.0, 0.0, 0.0, 0.0, 0.0, 1.686120740146716E9, 0.0, 2023-06-07 08:52:20.146
152.0, 32781.87308095373, 21208.408022929198, -2603.2853249651585, -451.6169967194792, 14651.099103820217, 28.565529413882427, -3855.2512353958173, -13185.495219885734, 0.008, -0.014, 0.976, 192.0, 0.0, 0.0, 0.0, 0.0, 0.0, 0.0, 0.0, 0.0, 0.0, 1.686120740149738E9, 0.0, 2023-06-07 08:52:20.149
153.0, 32781.15782513116, 21205.97168278357, -2602.391255186946, -465.13980211494, 14734.024075749407, 20.027163031955126, -3860.3474331316274, -13190.300844943626, 0.008, -0.014, 0.976, 192.0, 0.0, 0.0, 0.0, 0.0, 0.0, 0.0, 0.0, 0.0, 0.0, 1.686120740153801E9, 0.0, 2023-06-07 08:52:20.153
154.0, 32827.269473942455, 21243.321447768387, -2556.8383999870302, -485.7704622471884, 14561.960346932454, -29.794875358924315, -3982.9914549578975, -13323.96427678636, 0.008, -0.014, 0.976, 192.0, 0.0, 0.0, 0.0, 0.0, 0.0, 0.0, 0.0, 0.0, 0.0, 1.686120740157709E9, 0.0, 2023-06-07 08:52:20.157
