%OpenBCI Raw EEG Data
%Number of channels = 8
%Sample Rate = 250 Hz
%Board = OpenBCI_GUI$BoardCytonSerial
Sample Index, EXG Channel 0, EXG Channel 1, EXG Channel 2, EXG Channel 3, EXG Channel 4, EXG Channel 5, EXG Channel 6, EXG Channel 7, Accel Channel 0, Accel Channel 1, Accel Channel 2, Other, Other, Other, Other, Other, Other, Other, Analog Channel 0, Analog Channel 1, Analog Channel 2, Timestamp, Other, Timestamp (Formatted)
0.0, 0.0, 0.0, 0.0, 0.0, 0.0, 0.0, 0.0, 0.0, 0.006, -0.01, 0.974, 192.0, 0.0, 48.0, 255.0, 176.0, 30.0, 112.0, 0.0, 0.0, 0.0, 1.684848205694332E9, 0.0, 2023-05-23 15:23:25.694
1.0, 27413.207580233528, 33662.129481092634, 21760.898442375477, -18518.33087424408, -4989.445804291464, 6486.543296163475, 30624.706223572044, 14341.236870436296, 0.006, -0.01, 0.974, 192.0, 0.0, 0.0, 0.0, 0.0, 0.0, 0.0, 0.0, 0.0, 0.0, 1.684848205756698E9, 0.0, 2023-05-23 15:23:25.756
2.0, 27414.593388389756, 33654.507536233374, 21757.277459773715, -18518.19676377735, -4991.569220014718, 6479.1225170043135, 30610.24464490946, 14318.393387602973, 0.006, -0.01, 0.974, 192.0, 0.0, 0.0, 0.0, 0.0, 0.0, 0.0, 0.0, 0.0, 0.0, 1.684848205756703E9, 0.0, 2023-05-23 15:23:25.756
3.0, 27407.507885397423, 33651.87003038765, 21775.091800104597, -18510.28424624017, -4986.94240891247, 6498.926162591715, 30608.232987908483, 14336.967687245333, 0.006, -0.01, 0.974, 192.0, 0.0, 0.0, 0.0, 0.0, 0.0, 0.0, 0.0, 0.0, 0.0, 1.684848205756706E9, 0.0, 2023-05-23 15:23:25.756
4.0, 27407.46318190851, 33654.373425766644, 21771.068486102642, -18512.206496263327, -4984.4837170223855, 6506.436348728699, 30602.265072138915, 14342.287402425696, 0.006, -0.01, 0.974, 192.0, 0.0, 0.0, 0.0, 0.0, 0.0, 0.0, 0.0, 0.0, 0.0, 1.68484820575671E9, 0.0, 2023-05-23 15:23:25.756
5.0, 27406.300891196835, 33649.1431175641, 21753.6341254275, -18505.322158971092, -4957.438106231464, 6513.544203465486, 30631.791726564377, 14375.680908641925, 0.006, -0.01, 0.974, 192.0, 0.0, 0.0, 0.0, 0.0, 0.0, 0.0, 0.0, 0.0, 0.0, 1.684848205756713E9, 0.0, 2023-05-23 15:23:25.756
6.0, 27419.466068681013, 33653.546411221796, 21758.84208188559, -18499.935388557362, -4973.285493050277, 6502.256572515556, 30632.30581668685, 14347.830635050612, 0.006, -0.01, 0.974, 192.0, 0.0, 0.0, 0.0, 0.0, 0.0, 0.0, 0.0, 0.0, 0.0, 1.684848205756716E9, 0.0, 2023-05-23 15:23:25.756
7.0, 27419.510772169924, 33660.92248689204, 21757.433921984903, -18499.354243201524, -4987.970589157413, 6498.300313746967, 30625.421479394616, 14324.897745239467, 0.006, -0.01, 0.974, 192.0, 0.0, 0.0, 0.0, 0.0, 0.0, 0.0, 0.0, 0.0, 0.0, 1.684848205756719E9, 0.0, 2023-05-23 15:23:25.756
8.0, 27407.79845807534, 33655.71453043396, 21751.19778528187, -18500.538885657657, -4987.143574612567, 6509.029151085514, 30631.81407830883, 14342.019181492233, 0.002, -0.01, 0.968, 192.0, 0.0, 16.0, 255.0, 176.0, 30.0, 64.0, 0.0, 0.0, 0.0, 1.684848205756722E9, 0.0, 2023-05-23 15:23:25.756
9.0, 27404.244530706947, 33652.071196087745, 21756.74101790679, -18501.81293509161, -4984.930751911492, 6512.448967987177, 30629.847124796765, 14353.373867675527, 0.002, -0.01, 0.968, 192.0, 0.0, 0.0, 0.0, 0.0, 0.0, 0.0, 0.0, 0.0, 0.0, 1.684848205756725E9, 0.0, 2023-05-23 15:23:25.756
10.0, 27400.645899849642, 33650.05953908677, 21758.618564441036, -18516.408624220923, -4980.438051275975, 6506.19047953969, 30635.658578355145, 14370.629414395025, 0.002, -0.01, 0.968, 192.0, 0.0, 0.0, 0.0, 0.0, 0.0, 0.0, 0.0, 0.0, 0.0, 1.684848205756729E9, 0.0, 2023-05-23 15:23:25.756
11.0, 27400.176513216084, 33650.4395187425, 21761.010201097753, -18519.828441122587, -4993.446766548964, 6481.737671105585, 30617.10663045724, 14331.335047642595, 0.002, -0.01, 0.968, 192.0, 0.0, 0.0, 0.0, 0.0, 0.0, 0.0, 0.0, 0.0, 0.0, 1.684848205756732E9, 0.0, 2023-05-23 15:23:25.756
12.0, 27406.837333063762, 33655.13338507812, 21785.150085109482, -18505.322158971092, -4956.924016108992, 6484.531639162498, 30615.96669149002, 14317.432262591394, 0.002, -0.01, 0.968, 192.0, 0.0, 0.0, 0.0, 0.0, 0.0, 0.0, 0.0, 0.0, 0.0, 1.684848205756735E9, 0.0, 2023-05-23 15:23:25.756
13.0, 27409.631301120677, 33660.78837642531, 21789.732192722822, -18520.43193822288, -4946.083420048168, 6498.412072469244, 30626.136735217184, 14342.086236725598, 0.002, -0.01, 0.968, 192.0, 0.0, 0.0, 0.0, 0.0, 0.0, 0.0, 0.0, 0.0, 0.0, 1.684848205756739E9, 0.0, 2023-05-23 15:23:25.756
14.0, 27406.90438829713, 33658.933181635526, 21762.865395887544, -18508.406699705924, -4983.187315843978, 6509.297372018978, 30627.857819540244, 14356.860739810556, 0.002, -0.01, 0.968, 192.0, 0.0, 0.0, 0.0, 0.0, 0.0, 0.0, 0.0, 0.0, 0.0, 1.684848205756742E9, 0.0, 2023-05-23 15:23:25.756
15.0, 27406.077373752283, 33656.116861834154, 21765.502901733267, -18508.607865406022, -4982.069728621213, 6508.246840029578, 30648.44377618358, 14385.42626922444, 0.002, -0.01, 0.968, 192.0, 0.0, 0.0, 0.0, 0.0, 0.0, 0.0, 0.0, 0.0, 0.0, 1.684848205756746E9, 0.0, 2023-05-23 15:23:25.756
16.0, 27402.70226033953, 33646.550315207285, 21764.631183699512, -18516.98976957676, -4997.872411951114, 6491.818307854928, 30631.076470741806, 14351.965707774843, 0.002, -0.01, 0.968, 192.0, 0.0, 0.0, 0.0, 0.0, 0.0, 0.0, 0.0, 0.0, 0.0, 1.684848205816959E9, 0.0, 2023-05-23 15:23:25.816
17.0, 27404.780972573873, 33647.75730940787, 21761.814863898144, -18495.710908855308, -4990.295170580765, 6489.069043286925, 30615.00556647844, 14321.07559693761, 0.002, -0.01, 0.968, 192.0, 0.0, 0.0, 0.0, 0.0, 0.0, 0.0, 0.0, 0.0, 0.0, 1.684848205816967E9, 0.0, 2023-05-23 15:23:25.816
18.0, 27400.265920193902, 33644.53865820631, 21763.692410432388, -18493.5651413876, -4957.728678909383, 6502.815366126939, 30626.136735217184, 14339.135806457498, 0.004, -0.01, 0.972, 192.0, 0.0, 32.0, 255.0, 176.0, 30.0, 96.0, 0.0, 0.0, 0.0, 1.68484820581697E9, 0.0, 2023-05-23 15:23:25.816
19.0, 27399.729478326975, 33645.790355895806, 21752.293020760182, -18501.18708624686, -4965.618844702107, 6509.967924352637, 30625.10855497224, 14345.75192281627, 0.004, -0.01, 0.972, 192.0, 0.0, 0.0, 0.0, 0.0, 0.0, 0.0, 0.0, 0.0, 0.0, 1.684848205816974E9, 0.0, 2023-05-23 15:23:25.816
20.0, 27404.222178962493, 33652.78645191032, 21758.104474318563, -18510.23954275126, -4978.2252285749, 6510.52671796402, 30636.30677894435, 14367.23194923782, 0.004, -0.01, 0.972, 192.0, 0.0, 0.0, 0.0, 0.0, 0.0, 0.0, 0.0, 0.0, 0.0, 1.684848205816977E9, 0.0, 2023-05-23 15:23:25.816
21.0, 27408.692527853553, 33654.6416467001, 21773.907157648464, -18509.52428692869, -5002.0298364198015, 6500.244915514579, 30622.15812470414, 14334.799568033168, 0.004, -0.01, 0.972, 192.0, 0.0, 0.0, 0.0, 0.0, 0.0, 0.0, 0.0, 0.0, 0.0, 1.68484820581698E9, 0.0, 2023-05-23 15:23:25.816
22.0, 27413.98989128946, 33655.31219903376, 21759.78085515271, -18497.879028067473, -5003.1474236425665, 6499.931991092204, 30611.406935621137, 14313.610114289537, 0.004, -0.01, 0.972, 192.0, 0.0, 0.0, 0.0, 0.0, 0.0, 0.0, 0.0, 0.0, 0.0, 1.684848205816997E9, 0.0, 2023-05-23 15:23:25.816
23.0, 27406.43500166357, 33648.04788208579, 21746.749788135265, -18484.065649994096, -4992.865621193126, 6516.896965133783, 30620.97348224801, 14336.45359712286, 0.004, -0.01, 0.972, 192.0, 0.0, 0.0, 0.0, 0.0, 0.0, 0.0, 0.0, 0.0, 0.0, 1.684848205817E9, 0.0, 2023-05-23 15:23:25.817
24.0, 27401.47291439449, 33643.93516110601, 21751.913041104443, -18503.534019414667, -4986.718891467916, 6526.642325716296, 30621.845200281765, 14348.188262961898, 0.004, -0.01, 0.972, 192.0, 0.0, 0.0, 0.0, 0.0, 0.0, 0.0, 0.0, 0.0, 0.0, 1.684848205817003E9, 0.0, 2023-05-23 15:23:25.817
25.0, 27397.740173070455, 33642.25878027186, 21769.12388433503, -18508.607865406022, -4979.141650097567, 6522.820177414439, 30633.266941698428, 14367.790742849202, 0.004, -0.01, 0.972, 192.0, 0.0, 0.0, 0.0, 0.0, 0.0, 0.0, 0.0, 0.0, 0.0, 1.684848205817006E9, 0.0, 2023-05-23 15:23:25.817
26.0, 27403.775144073385, 33641.454117471476, 21768.430980256915, -18501.298844969137, -4983.679054221994, 6505.1846510392015, 30615.139676945175, 14331.782082531701, 0.004, -0.01, 0.972, 192.0, 0.0, 0.0, 0.0, 0.0, 0.0, 0.0, 0.0, 0.0, 0.0, 1.684848205817009E9, 0.0, 2023-05-23 15:23:25.817
27.0, 27404.08806849576, 33646.41620474055, 21759.043247585687, -18492.38049893147, -4954.26415851881, 6504.223526027623, 30608.098877441753, 14314.034797434188, 0.004, -0.01, 0.972, 192.0, 0.0, 0.0, 0.0, 0.0, 0.0, 0.0, 0.0, 0.0, 0.0, 1.684848205817012E9, 0.0, 2023-05-23 15:23:25.817
28.0, 27400.89176903865, 33652.697044932494, 21754.416436483436, -18502.103507769527, -4930.504254162819, 6510.817290641939, 30619.408860136136, 14330.060998208643, 0.004, -0.01, 0.97, 192.0, 0.0, 32.0, 255.0, 176.0, 30.0, 80.0, 0.0, 0.0, 0.0, 1.684848205817015E9, 0.0, 2023-05-23 15:23:25.817
29.0, 27392.24164393445, 33643.93516110601, 21732.556430406148, -18504.60690314852, -4972.8608099056255, 6511.554898208964, 30615.83258102329, 14334.956030244355, 0.004, -0.01, 0.97, 192.0, 0.0, 0.0, 0.0, 0.0, 0.0, 0.0, 0.0, 0.0, 0.0, 1.684848205817018E9, 0.0, 2023-05-23 15:23:25.817
30.0, 27384.08325720826, 33636.201457524476, 21731.55060190566, -18501.052975780127, -4995.234906105388, 6511.8231191424275, 30624.996796249965, 14362.18045499092, 0.004, -0.01, 0.97, 192.0, 0.0, 0.0, 0.0, 0.0, 0.0, 0.0, 0.0, 0.0, 0.0, 1.684848205817022E9, 0.0, 2023-05-23 15:23:25.817
31.0, 27397.270786436893, 33641.76704189385, 21750.8848608595, -18502.505839169724, -4997.000693917357, 6502.301276004467, 30606.95893847453, 14334.26312616624, 0.004, -0.01, 0.97, 192.0, 0.0, 0.0, 0.0, 0.0, 0.0, 0.0, 0.0, 0.0, 0.0, 1.684848205876357E9, 0.0, 2023-05-23 15:23:25.876
32.0, 27405.719745840997, 33642.214076782955, 21760.049076086176, -18500.918865313397, -4973.777231428294, 6499.61906666983, 30600.63339479368, 14311.509050310739, 0.004, -0.01, 0.97, 192.0, 0.0, 0.0, 0.0, 0.0, 0.0, 0.0, 0.0, 0.0, 0.0, 1.684848205876365E9, 0.0, 2023-05-23 15:23:25.876
33.0, 27395.28148118037, 33640.56004769326, 21757.813901640642, -18486.70315583982, -4955.4264492304865, 6512.359561009355, 30603.337955872772, 14327.892878996478, 0.004, -0.01, 0.97, 192.0, 0.0, 0.0, 0.0, 0.0, 0.0, 0.0, 0.0, 0.0, 0.0, 1.684848205876369E9, 0.0, 2023-05-23 15:23:25.876
34.0, 27386.832521776265, 33646.125632062634, 21777.841064672597, -18520.47664171179, -4975.922998896003, 6519.690933190695, 30605.9754617185, 14338.152329701465, 0.004, -0.01, 0.97, 192.0, 0.0, 0.0, 0.0, 0.0, 0.0, 0.0, 0.0, 0.0, 0.0, 1.684848205876372E9, 0.0, 2023-05-23 15:23:25.876
35.0, 27382.652745563122, 33641.74469014939, 21754.751712650268, -18540.973191377307, -4978.60520823064, 6517.634572700807, 30624.21448519403, 14364.08035326962, 0.004, -0.01, 0.97, 192.0, 0.0, 0.0, 0.0, 0.0, 0.0, 0.0, 0.0, 0.0, 0.0, 1.684848205876375E9, 0.0, 2023-05-23 15:23:25.876
36.0, 27384.954975242017, 33634.1898005235, 21729.896572815964, -18525.326970258593, -4986.137746112078, 6496.176898023713, 30603.159141917127, 14326.864698751533, 0.004, -0.01, 0.97, 192.0, 0.0, 0.0, 0.0, 0.0, 0.0, 0.0, 0.0, 0.0, 0.0, 1.684848205876378E9, 0.0, 2023-05-23 15:23:25.876
37.0, 27393.314527668303, 33641.588227938206, 21752.91886960493, -18511.80416486313, -4984.863696678126, 6489.3819677093, 30604.410839606626, 14307.64219851997, 0.004, -0.01, 0.97, 192.0, 0.0, 0.0, 0.0, 0.0, 0.0, 0.0, 0.0, 0.0, 0.0, 1.684848205876381E9, 0.0, 2023-05-23 15:23:25.876
38.0, 27398.3660219152, 33650.730091420424, 21763.35713426556, -18502.8187635921, -4976.504144251841, 6503.754139394062, 30619.25239792495, 14335.045437222176, 0.002, -0.008, 0.972, 192.0, 0.0, 16.0, 255.0, 192.0, 30.0, 96.0, 0.0, 0.0, 0.0, 1.684848205876384E9, 0.0, 2023-05-23 15:23:25.876
39.0, 27390.341745655747, 33649.1431175641, 21768.11805583454, -18512.43001370788, -4989.602266502651, 6512.67248543173, 30608.232987908483, 14337.951164001366, 0.002, -0.008, 0.972, 192.0, 0.0, 0.0, 0.0, 0.0, 0.0, 0.0, 0.0, 0.0, 0.0, 1.684848205876387E9, 0.0, 2023-05-23 15:23:25.876
40.0, 27389.00064098843, 33646.59501869619, 21758.21623304084, -18518.80026087764, -4981.041548376268, 6512.71718892064, 30626.829639295298, 14364.996774792287, 0.002, -0.008, 0.972, 192.0, 0.0, 0.0, 0.0, 0.0, 0.0, 0.0, 0.0, 0.0, 0.0, 1.684848205876391E9, 0.0, 2023-05-23 15:23:25.876
41.0, 27393.694507324042, 33639.42010872604, 21737.965552564332, -18528.411510993425, -5003.03566492029, 6497.719168391129, 30614.469124611514, 14337.682943067903, 0.002, -0.008, 0.972, 192.0, 0.0, 0.0, 0.0, 0.0, 0.0, 0.0, 0.0, 0.0, 0.0, 1.684848205876394E9, 0.0, 2023-05-23 15:23:25.876
42.0, 27392.71103056801, 33636.51438194685, 21730.477718171802, -18522.37653999049, -5006.544888799774, 6495.059310800947, 30599.38169710418, 14311.710216010835, 0.002, -0.008, 0.972, 192.0, 0.0, 0.0, 0.0, 0.0, 0.0, 0.0, 0.0, 0.0, 0.0, 1.684848205876397E9, 0.0, 2023-05-23 15:23:25.876
43.0, 27386.676059565078, 33631.373480722126, 21726.38734893648, -18508.361996217012, -4999.124109640612, 6509.073854574425, 30595.04545867985, 14329.569259830627, 0.002, -0.008, 0.972, 192.0, 0.0, 0.0, 0.0, 0.0, 0.0, 0.0, 0.0, 0.0, 0.0, 1.68484820587642E9, 0.0, 2023-05-23 15:23:25.876
44.0, 27387.391315387646, 33635.75442263537, 21727.169659992418, -18494.32510069908, -4983.74610945536, 6517.008723856059, 30585.367153330702, 14334.9336784999, 0.002, -0.008, 0.972, 192.0, 0.0, 0.0, 0.0, 0.0, 0.0, 0.0, 0.0, 0.0, 0.0, 1.684848205876423E9, 0.0, 2023-05-23 15:23:25.876
45.0, 27388.307736910312, 33630.65822489956, 21738.323180475614, -18498.147249000936, -4971.5644087272185, 6514.393569754788, 30603.181493661585, 14358.134789244508, 0.002, -0.008, 0.972, 192.0, 0.0, 0.0, 0.0, 0.0, 0.0, 0.0, 0.0, 0.0, 0.0, 1.684848205876426E9, 0.0, 2023-05-23 15:23:25.876
46.0, 27390.22998693347, 33631.55229467777, 21752.225965526817, -18510.910095084917, -4952.185446284467, 6492.600618910864, 30590.23983362196, 14329.345742386073, 0.002, -0.008, 0.972, 192.0, 0.0, 0.0, 0.0, 0.0, 0.0, 0.0, 0.0, 0.0, 0.0, 1.684848205936218E9, 0.0, 2023-05-23 15:23:25.936
47.0, 27395.415591647103, 33640.69415815999, 21758.059770829652, -18519.537868444666, -4983.522592010808, 6491.483031688098, 30578.77338871639, 14306.792832230669, 0.002, -0.008, 0.972, 192.0, 0.0, 0.0, 0.0, 0.0, 0.0, 0.0, 0.0, 0.0, 0.0, 1.684848205936225E9, 0.0, 2023-05-23 15:23:25.936
48.0, 27391.816960789798, 33640.604751182174, 21755.466968472836, -18489.85475180802, -5005.874336466114, 6500.446081214676, 30585.121284141696, 14319.846250992567, 0.004, -0.008, 0.97, 192.0, 0.0, 32.0, 255.0, 192.0, 30.0, 80.0, 0.0, 0.0, 0.0, 1.684848205936229E9, 0.0, 2023-05-23 15:23:25.936
49.0, 27394.499170124433, 33645.87976287362, 21767.11222733405, -18497.43199317837, -5000.46521430793, 6504.938781850194, 30586.52944404238, 14326.909402240444, 0.004, -0.008, 0.97, 192.0, 0.0, 0.0, 0.0, 0.0, 0.0, 0.0, 0.0, 0.0, 0.0, 1.684848205936232E9, 0.0, 2023-05-23 15:23:25.936
50.0, 27387.726591554474, 33641.789393638304, 21764.698238932877, -18504.60690314852, -4990.295170580765, 6499.395549225277, 30608.76942977541, 14359.74411484529, 0.004, -0.008, 0.97, 192.0, 0.0, 0.0, 0.0, 0.0, 0.0, 0.0, 0.0, 0.0, 0.0, 1.684848205936235E9, 0.0, 2023-05-23 15:23:25.936
51.0, 27399.818885304798, 33649.88072513112, 21774.26478555975, -18486.211417461804, -5004.46617656543, 6490.879534587805, 30599.38169710418, 14337.370018645528, 0.004, -0.008, 0.97, 192.0, 0.0, 0.0, 0.0, 0.0, 0.0, 0.0, 0.0, 0.0, 0.0, 1.684848205936238E9, 0.0, 2023-05-23 15:23:25.936
52.0, 27409.5195423984, 33654.865164144656, 21780.41151528496, -18486.390231417445, -4992.887972937581, 6492.466508444132, 30590.48570281097, 14316.873468980011, 0.004, -0.008, 0.97, 192.0, 0.0, 0.0, 0.0, 0.0, 0.0, 0.0, 0.0, 0.0, 0.0, 1.684848205936241E9, 0.0, 2023-05-23 15:23:25.936
53.0, 27409.29602495385, 33658.016760112856, 21760.339648764093, -18510.32894972908, -4985.936580411981, 6499.909639347749, 30595.20192089104, 14328.272858652219, 0.004, -0.008, 0.97, 192.0, 0.0, 0.0, 0.0, 0.0, 0.0, 0.0, 0.0, 0.0, 0.0, 1.684848205936244E9, 0.0, 2023-05-23 15:23:25.936
54.0, 27401.85289405023, 33654.149908322084, 21732.06469202813, -18505.70213862683, -4989.199935102455, 6496.176898023713, 30599.024069192896, 14329.949239486366, 0.004, -0.008, 0.97, 192.0, 0.0, 0.0, 0.0, 0.0, 0.0, 0.0, 0.0, 0.0, 0.0, 1.684848205936249E9, 0.0, 2023-05-23 15:23:25.936
55.0, 27392.018126489893, 33640.247123270885, 21738.144366519973, -18492.022871020185, -4953.303033507233, 6484.464583929132, 30611.04930770985, 14350.64695485198, 0.004, -0.008, 0.97, 192.0, 0.0, 0.0, 0.0, 0.0, 0.0, 0.0, 0.0, 0.0, 0.0, 1.684848205936254E9, 0.0, 2023-05-23 15:23:25.936
56.0, 27398.18720795956, 33644.56100995076, 21762.26189878725, -18503.645778136943, -4962.623710945095, 6465.577359864397, 30598.219406392505, 14319.9803614593, 0.004, -0.008, 0.97, 192.0, 0.0, 0.0, 0.0, 0.0, 0.0, 0.0, 0.0, 0.0, 0.0, 1.684848205936258E9, 0.0, 2023-05-23 15:23:25.936
57.0, 27398.85776029322, 33646.21503904046, 21767.849834901077, -18498.437821678857, -4984.148440855556, 6470.360633177833, 30589.122246399194, 14300.176715871898, 0.004, -0.008, 0.97, 192.0, 0.0, 0.0, 0.0, 0.0, 0.0, 0.0, 0.0, 0.0, 0.0, 1.684848205936263E9, 0.0, 2023-05-23 15:23:25.936
58.0, 27398.298966681836, 33646.43855648501, 21762.083084831607, -18507.602036905533, -4976.548847740752, 6492.555915421953, 30603.42736285059, 14324.942448728378, 0.004, -0.008, 0.972, 192.0, 0.0, 32.0, 255.0, 192.0, 30.0, 96.0, 0.0, 0.0, 0.0, 1.684848205936266E9, 0.0, 2023-05-23 15:23:25.936
59.0, 27384.574995586278, 33633.966283078946, 21747.241526513284, -18508.250237494736, -4958.98037659888, 6507.308066762455, 30603.270900639403, 14336.475948867315, 0.004, -0.008, 0.972, 192.0, 0.0, 0.0, 0.0, 0.0, 0.0, 0.0, 0.0, 0.0, 0.0, 1.684848205936269E9, 0.0, 2023-05-23 15:23:25.936
60.0, 27379.791722272843, 33633.69806214548, 21754.10351206106, -18515.849830609543, -4961.729641166883, 6504.134119049802, 30616.749002545956, 14358.805341578167, 0.004, -0.008, 0.972, 192.0, 0.0, 0.0, 0.0, 0.0, 0.0, 0.0, 0.0, 0.0, 0.0, 1.684848205936277E9, 0.0, 2023-05-23 15:23:25.936
61.0, 27383.32329789678, 33632.066384800244, 21758.506805718756, -18520.253124267238, -5005.650819021562, 6492.086528788392, 30610.177589676096, 14333.41375987694, 0.004, -0.008, 0.972, 192.0, 0.0, 0.0, 0.0, 0.0, 0.0, 0.0, 0.0, 0.0, 0.0, 1.684848205996549E9, 0.0, 2023-05-23 15:23:25.996
62.0, 27397.270786436893, 33642.30348376078, 21758.931488863407, -18501.90234206943, -4993.6926357379725, 6494.098185789369, 30605.48372334048, 14311.68786426638, 0.004, -0.008, 0.972, 192.0, 0.0, 0.0, 0.0, 0.0, 0.0, 0.0, 0.0, 0.0, 0.0, 1.684848205996567E9, 0.0, 2023-05-23 15:23:25.996
63.0, 27395.594405602744, 33638.72720464793, 21753.6341254275, -18479.058859236105, -4986.428318789997, 6513.007761598559, 30621.375813648203, 14336.520652356226, 0.004, -0.008, 0.972, 192.0, 0.0, 0.0, 0.0, 0.0, 0.0, 0.0, 0.0, 0.0, 0.0, 1.684848205996571E9, 0.0, 2023-05-23 15:23:25.996
64.0, 27396.51082712541, 33638.8389633702, 21756.60690744006, -18488.580702374067, -4985.400138545053, 6518.19336631219, 30629.981235263498, 14344.969611760333, 0.004, -0.008, 0.972, 192.0, 0.0, 0.0, 0.0, 0.0, 0.0, 0.0, 0.0, 0.0, 0.0, 1.68484820599661E9, 0.0, 2023-05-23 15:23:25.996
65.0, 27395.639109091655, 33636.0896988022, 21750.43782597039, -18513.14526953045, -4982.337949554676, 6519.24389830159, 30638.497249900967, 14367.276652726729, 0.004, -0.008, 0.972, 192.0, 0.0, 0.0, 0.0, 0.0, 0.0, 0.0, 0.0, 0.0, 0.0, 1.684848205996614E9, 0.0, 2023-05-23 15:23:25.996
66.0, 27396.063792236306, 33631.10525978867, 21735.529212418704, -18512.05003405214, -4998.878240451603, 6496.623932912819, 30616.972519990508, 14332.095006954076, 0.004, -0.008, 0.972, 192.0, 0.0, 0.0, 0.0, 0.0, 0.0, 0.0, 0.0, 0.0, 0.0, 1.684848205996618E9, 0.0, 2023-05-23 15:23:25.996
67.0, 27393.582748601766, 33635.10622204617, 21741.854756099554, -18497.297882711635, -4998.721778240416, 6492.377101466311, 30602.801514005845, 14304.669416507413, 0.004, -0.008, 0.972, 192.0, 0.0, 0.0, 0.0, 0.0, 0.0, 0.0, 0.0, 0.0, 0.0, 1.684848205996622E9, 0.0, 2023-05-23 15:23:25.996
68.0, 27391.124056711684, 33642.772870394336, 21745.319276490125, -18499.801278090632, -4986.718891467916, 6507.956267351659, 30608.63531930868, 14327.669361551925, 0.004, -0.008, 0.976, 192.0, 0.0, 32.0, 255.0, 192.0, 30.0, 128.0, 0.0, 0.0, 0.0, 1.684848205996626E9, 0.0, 2023-05-23 15:23:25.996
69.0, 27391.973423000985, 33648.0925855747, 21763.446541243382, -18494.54861814363, -4989.781080458293, 6513.723017421129, 30612.703336799546, 14338.733475057303, 0.004, -0.008, 0.976, 192.0, 0.0, 0.0, 0.0, 0.0, 0.0, 0.0, 0.0, 0.0, 0.0, 1.684848205996631E9, 0.0, 2023-05-23 15:23:25.996
70.0, 27392.487513123455, 33646.88559137411, 21750.6836951594, -18498.169600745394, -4987.277685079299, 6511.487842975598, 30633.19988646506, 14364.281518969718, 0.004, -0.008, 0.976, 192.0, 0.0, 0.0, 0.0, 0.0, 0.0, 0.0, 0.0, 0.0, 0.0, 1.684848205996635E9, 0.0, 2023-05-23 15:23:25.996
71.0, 27401.785838816864, 33647.243219285396, 21748.20265152486, -18507.490278183257, -4988.954065913447, 6492.757081122051, 30617.665424068622, 14333.41375987694, 0.004, -0.008, 0.976, 192.0, 0.0, 0.0, 0.0, 0.0, 0.0, 0.0, 0.0, 0.0, 0.0, 1.684848205996638E9, 0.0, 2023-05-23 15:23:25.996
72.0, 27405.876208052185, 33646.10328031817, 21753.96940159433, -18499.242484479248, -4984.193144344466, 6482.497630417065, 30591.893862711655, 14300.668454249913, 0.004, -0.008, 0.976, 192.0, 0.0, 0.0, 0.0, 0.0, 0.0, 0.0, 0.0, 0.0, 0.0, 1.684848205996642E9, 0.0, 2023-05-23 15:23:25.996
73.0, 27397.650766092633, 33642.43759422751, 21758.327991763115, -18490.637062863956, -4984.170792600012, 6501.0719300594255, 30596.85594998073, 14321.16500391543, 0.004, -0.008, 0.976, 192.0, 0.0, 0.0, 0.0, 0.0, 0.0, 0.0, 0.0, 0.0, 0.0, 1.684848205996646E9, 0.0, 2023-05-23 15:23:25.996
74.0, 27401.763487072407, 33647.15381230757, 21759.222061541328, -18477.69540282433, -4962.109620822624, 6505.497575461576, 30600.164008160118, 14330.329219142106, 0.004, -0.008, 0.976, 192.0, 0.0, 0.0, 0.0, 0.0, 0.0, 0.0, 0.0, 0.0, 0.0, 1.684848205996649E9, 0.0, 2023-05-23 15:23:25.996
75.0, 27397.673117837086, 33644.85158262868, 21766.508730233756, -18493.252216965226, -4928.4255419284755, 6497.182726524202, 30617.710127557533, 14358.224196222329, 0.004, -0.008, 0.976, 192.0, 0.0, 0.0, 0.0, 0.0, 0.0, 0.0, 0.0, 0.0, 0.0, 1.684848205996654E9, 0.0, 2023-05-23 15:23:25.996
76.0, 27406.457353408023, 33647.26557102985, 21769.280346546217, -18493.028699520673, -4979.119298353112, 6478.228447226102, 30609.797610020356, 14328.541079585682, 0.004, -0.008, 0.976, 192.0, 0.0, 0.0, 0.0, 0.0, 0.0, 0.0, 0.0, 0.0, 0.0, 1.684848206056735E9, 0.0, 2023-05-23 15:23:26.056
77.0, 27416.202713990537, 33658.68731244651, 21766.329916278115, -18488.670109351886, -4988.104699624146, 6478.206095481646, 30612.97155773301, 14310.16794564342, 0.004, -0.008, 0.976, 192.0, 0.0, 0.0, 0.0, 0.0, 0.0, 0.0, 0.0, 0.0, 0.0, 1.684848206056747E9, 0.0, 2023-05-23 15:23:26.056
78.0, 27404.75862082942, 33651.95943736547, 21757.523328962725, -18461.89271949443, -4974.939522139969, 6493.941723578182, 30616.279615912394, 14326.976457473811, 0.006, -0.008, 0.974, 192.0, 0.0, 48.0, 255.0, 192.0, 30.0, 112.0, 0.0, 0.0, 0.0, 1.684848206056751E9, 0.0, 2023-05-23 15:23:26.056
79.0, 27399.952995771528, 33650.50657397587, 21756.33868650659, -18486.23376920626, -4989.155231613545, 6506.078720817414, 30610.11053444273, 14331.223288920319, 0.006, -0.008, 0.974, 192.0, 0.0, 0.0, 0.0, 0.0, 0.0, 0.0, 0.0, 0.0, 0.0, 1.684848206056755E9, 0.0, 2023-05-23 15:23:26.056
80.0, 27399.885940538163, 33649.411338497564, 21754.416436483436, -18493.118106498492, -4978.7840221862825, 6500.066101558937, 30622.40399389315, 14354.334992687107, 0.006, -0.008, 0.974, 192.0, 0.0, 0.0, 0.0, 0.0, 0.0, 0.0, 0.0, 0.0, 0.0, 1.684848206056758E9, 0.0, 2023-05-23 15:23:26.056
81.0, 27406.5691121303, 33653.07702458823, 21758.43975048539, -18491.08409775306, -4978.538152997274, 6483.838735084383, 30604.142618673162, 14325.992980717778, 0.006, -0.008, 0.974, 192.0, 0.0, 0.0, 0.0, 0.0, 0.0, 0.0, 0.0, 0.0, 0.0, 1.684848206056762E9, 0.0, 2023-05-23 15:23:26.056
82.0, 27412.067641266305, 33655.0439781003, 21765.92758487792, -18492.55931288711, -4978.716966952917, 6486.386833952289, 30598.599386048245, 14304.669416507413, 0.006, -0.008, 0.974, 192.0, 0.0, 0.0, 0.0, 0.0, 0.0, 0.0, 0.0, 0.0, 0.0, 1.684848206056765E9, 0.0, 2023-05-23 15:23:26.056
83.0, 27409.810115076318, 33655.781585667326, 21756.271631273226, -18493.81101057661, -4980.192182086967, 6501.541316692987, 30618.11245895773, 14324.763634772735, 0.006, -0.008, 0.974, 192.0, 0.0, 0.0, 0.0, 0.0, 0.0, 0.0, 0.0, 0.0, 0.0, 1.684848206056768E9, 0.0, 2023-05-23 15:23:26.056
84.0, 27400.601196360734, 33649.3889867531, 21743.64289565598, -18491.53113264217, -4985.042510633768, 6507.173956295724, 30622.068717726317, 14332.78791103219, 0.006, -0.008, 0.974, 192.0, 0.0, 0.0, 0.0, 0.0, 0.0, 0.0, 0.0, 0.0, 0.0, 1.684848206056771E9, 0.0, 2023-05-23 15:23:26.056
85.0, 27392.934548012563, 33643.77869889483, 21739.06078804264, -18500.695347868845, -4977.197048329956, 6506.279886517512, 30632.372871920215, 14360.526425901226, 0.006, -0.008, 0.974, 192.0, 0.0, 0.0, 0.0, 0.0, 0.0, 0.0, 0.0, 0.0, 0.0, 1.684848206056775E9, 0.0, 2023-05-23 15:23:26.056
86.0, 27394.14154221315, 33643.242257027894, 21747.174471279915, -18505.03158629317, -4970.55858022673, 6489.359615964844, 30614.938511245076, 14330.396274375473, 0.006, -0.008, 0.974, 192.0, 0.0, 0.0, 0.0, 0.0, 0.0, 0.0, 0.0, 0.0, 0.0, 1.684848206056798E9, 0.0, 2023-05-23 15:23:26.056
87.0, 27402.411687661614, 33649.43369024202, 21763.625355199023, -18488.737164585255, -4975.610074473629, 6482.229409483602, 30602.890920983664, 14300.377881571994, 0.006, -0.008, 0.974, 192.0, 0.0, 0.0, 0.0, 0.0, 0.0, 0.0, 0.0, 0.0, 0.0, 1.684848206056802E9, 0.0, 2023-05-23 15:23:26.056
88.0, 27400.176513216084, 33647.578495452224, 21758.39504699648, -18487.463115151302, -4979.231057075388, 6498.52383119152, 30613.95503448904, 14316.73935851328, 0.002, -0.008, 0.974, 192.0, 0.0, 16.0, 255.0, 192.0, 30.0, 112.0, 0.0, 0.0, 0.0, 1.684848206056805E9, 0.0, 2023-05-23 15:23:26.056
89.0, 27387.771295043385, 33634.100393545676, 21735.909192074443, -18496.448516422333, -4982.248542576855, 6508.269191774034, 30611.831618765787, 14324.651876050459, 0.002, -0.008, 0.974, 192.0, 0.0, 0.0, 0.0, 0.0, 0.0, 0.0, 0.0, 0.0, 0.0, 1.684848206056809E9, 0.0, 2023-05-23 15:23:26.056
90.0, 27382.250414162925, 33630.27824524382, 21732.39996819496, -18497.342586200546, -4971.184429071478, 6503.418863227233, 30622.40399389315, 14355.094951998586, 0.002, -0.008, 0.974, 192.0, 0.0, 0.0, 0.0, 0.0, 0.0, 0.0, 0.0, 0.0, 0.0, 1.684848206056812E9, 0.0, 2023-05-23 15:23:26.056
91.0, 27395.415591647103, 33641.1411930491, 21740.40189270996, -18504.00340604823, -4974.5595424842295, 6482.788203094984, 30613.39624087766, 14332.184413931896, 0.002, -0.008, 0.974, 192.0, 0.0, 0.0, 0.0, 0.0, 0.0, 0.0, 0.0, 0.0, 0.0, 1.684848206116947E9, 0.0, 2023-05-23 15:23:26.116
92.0, 27401.584673116766, 33642.81757388324, 21754.751712650268, -18487.463115151302, -4974.067804106213, 6474.272188457512, 30605.707240785032, 14306.323445597107, 0.002, -0.008, 0.974, 192.0, 0.0, 0.0, 0.0, 0.0, 0.0, 0.0, 0.0, 0.0, 0.0, 1.684848206116955E9, 0.0, 2023-05-23 15:23:26.116
93.0, 27395.50499862492, 33639.73303314841, 21750.34841899257, -18480.735240070255, -4975.855943662637, 6491.125403776813, 30623.923912516108, 14333.302001154661, 0.002, -0.008, 0.974, 192.0, 0.0, 0.0, 0.0, 0.0, 0.0, 0.0, 0.0, 0.0, 0.0, 1.684848206116959E9, 0.0, 2023-05-23 15:23:26.116
94.0, 27394.812094546807, 33642.86227737216, 21743.508785189246, -18485.5632168726, -4990.339874069676, 6502.323627748922, 30628.05898524034, 14338.26408842374, 0.002, -0.008, 0.974, 192.0, 0.0, 0.0, 0.0, 0.0, 0.0, 0.0, 0.0, 0.0, 0.0, 1.684848206116962E9, 0.0, 2023-05-23 15:23:26.116
95.0, 27387.65953632111, 33638.68250115901, 21737.809090353145, -18495.219170477292, -4982.695577465961, 6505.028188828014, 30631.925837031107, 14355.36317293205, 0.002, -0.008, 0.974, 192.0, 0.0, 0.0, 0.0, 0.0, 0.0, 0.0, 0.0, 0.0, 0.0, 1.684848206116965E9, 0.0, 2023-05-23 15:23:26.116
96.0, 27382.7645042854, 33627.104297531165, 21733.942238562377, -18498.773097845686, -4991.502164781352, 6489.180802009202, 30621.465220626025, 14330.530384842205, 0.002, -0.008, 0.974, 192.0, 0.0, 0.0, 0.0, 0.0, 0.0, 0.0, 0.0, 0.0, 0.0, 1.684848206116968E9, 0.0, 2023-05-23 15:23:26.116
97.0, 27386.206672931516, 33630.524114432825, 21747.5320991912, -18505.65743513792, -5008.400083589564, 6484.844563584872, 30619.8782467697, 14305.54113454117, 0.002, -0.008, 0.974, 192.0, 0.0, 0.0, 0.0, 0.0, 0.0, 0.0, 0.0, 0.0, 0.0, 1.684848206116971E9, 0.0, 2023-05-23 15:23:26.116
98.0, 27383.770332785887, 33634.79329762379, 21741.430072954903, -18493.878065809975, -4996.196031116967, 6505.363464994844, 30625.82381079481, 14323.422530105416, 0.006, -0.012, 0.974, 192.0, 0.0, 48.0, 255.0, 160.0, 30.0, 112.0, 0.0, 0.0, 0.0, 1.684848206116974E9, 0.0, 2023-05-23 15:23:26.116
99.0, 27381.401047873624, 33630.099431288174, 21722.72166284581, -18491.4640774088, -4987.814126946227, 6510.303200519467, 30615.094973456264, 14333.302001154661, 0.006, -0.012, 0.974, 192.0, 0.0, 0.0, 0.0, 0.0, 0.0, 0.0, 0.0, 0.0, 0.0, 1.684848206116977E9, 0.0, 2023-05-23 15:23:26.116
100.0, 27377.735361782954, 33626.56785566424, 21721.44761341186, -18500.33771995756, -4982.405004788042, 6503.441214971687, 30623.409822393638, 14359.051210767177, 0.006, -0.012, 0.974, 192.0, 0.0, 0.0, 0.0, 0.0, 0.0, 0.0, 0.0, 0.0, 0.0, 1.684848206116981E9, 0.0, 2023-05-23 15:23:26.116
101.0, 27378.160044927605, 33630.188838265996, 21736.289171730183, -18506.10447002703, -4998.185336373489, 6477.826115825906, 30608.791781519867, 14330.530384842205, 0.006, -0.012, 0.974, 192.0, 0.0, 0.0, 0.0, 0.0, 0.0, 0.0, 0.0, 0.0, 0.0, 1.684848206116984E9, 0.0, 2023-05-23 15:23:26.116
102.0, 27383.36800138569, 33634.458021456965, 21752.583593438103, -18505.813897349108, -4991.099833381157, 6466.180856964691, 30587.19999637604, 14296.153401869942, 0.006, -0.012, 0.974, 192.0, 0.0, 0.0, 0.0, 0.0, 0.0, 0.0, 0.0, 0.0, 0.0, 1.684848206116987E9, 0.0, 2023-05-23 15:23:26.116
103.0, 27380.12699843967, 33634.14509703459, 21750.84015737059, -18502.57289440309, -4963.026042345291, 6474.808630324439, 30590.999792933442, 14309.184468887386, 0.006, -0.012, 0.974, 192.0, 0.0, 0.0, 0.0, 0.0, 0.0, 0.0, 0.0, 0.0, 0.0, 1.684848206116991E9, 0.0, 2023-05-23 15:23:26.116
104.0, 27374.717876281487, 33630.747631877384, 21735.909192074443, -18520.29782775615, -4975.811240173726, 6478.295502459468, 30588.451694065538, 14316.471137579816, 0.006, -0.012, 0.974, 192.0, 0.0, 0.0, 0.0, 0.0, 0.0, 0.0, 0.0, 0.0, 0.0, 1.684848206116994E9, 0.0, 2023-05-23 15:23:26.116
105.0, 27370.716914023986, 33624.48914342989, 21733.629314140002, -18516.676845154387, -4984.7742897003045, 6477.826115825906, 30611.63045306569, 14345.863681538545, 0.006, -0.012, 0.974, 192.0, 0.0, 0.0, 0.0, 0.0, 0.0, 0.0, 0.0, 0.0, 0.0, 1.684848206116997E9, 0.0, 2023-05-23 15:23:26.116
106.0, 27382.093951951738, 33630.948797577475, 21741.16185202144, -18517.79443237715, -4994.184374115989, 6461.777563306995, 30605.550778573845, 14316.806413746646, 0.006, -0.012, 0.974, 192.0, 0.0, 0.0, 0.0, 0.0, 0.0, 0.0, 0.0, 0.0, 0.0, 1.684848206176333E9, 0.0, 2023-05-23 15:23:26.176
107.0, 27387.346611898734, 33635.642663913095, 21739.44076769838, -18503.086984525562, -4990.384577558587, 6460.950548762149, 30591.37977258918, 14290.856038434034, 0.006, -0.012, 0.974, 192.0, 0.0, 0.0, 0.0, 0.0, 0.0, 0.0, 0.0, 0.0, 0.0, 1.684848206176363E9, 0.0, 2023-05-23 15:23:26.176
108.0, 27381.065771706795, 33634.1898005235, 21748.49322420278, -18491.575836131076, -4957.259292275821, 6474.786278579984, 30598.509979070426, 14313.78892824518, 0.008, -0.006, 0.972, 192.0, 0.0, 64.0, 255.0, 208.0, 30.0, 96.0, 0.0, 0.0, 0.0, 1.684848206176367E9, 0.0, 2023-05-23 15:23:26.176
109.0, 27382.965669985497, 33636.80495462477, 21756.048113828674, -18487.70898434031, -4944.5635014252075, 6488.2196769976235, 30602.510941327924, 14325.769463273224, 0.008, -0.006, 0.972, 192.0, 0.0, 0.0, 0.0, 0.0, 0.0, 0.0, 0.0, 0.0, 0.0, 1.68484820617637E9, 0.0, 2023-05-23 15:23:26.176
110.0, 27380.75284728442, 33632.5357714338, 21739.35136072056, -18489.944158785842, -4970.60328371564, 6488.242028742079, 30617.44190662407, 14349.395257162483, 0.008, -0.006, 0.972, 192.0, 0.0, 0.0, 0.0, 0.0, 0.0, 0.0, 0.0, 0.0, 0.0, 1.684848206176373E9, 0.0, 2023-05-23 15:23:26.176
111.0, 27393.202768946026, 33637.76607963635, 21736.177413007907, -18489.139495985448, -4990.205763602944, 6477.222618725613, 30610.44581060956, 14322.975495216311, 0.008, -0.006, 0.972, 192.0, 0.0, 0.0, 0.0, 0.0, 0.0, 0.0, 0.0, 0.0, 0.0, 1.684848206176376E9, 0.0, 2023-05-23 15:23:26.176
112.0, 27405.116248740705, 33647.310274518764, 21743.307619489147, -18477.874216779976, -4991.5245165258075, 6487.325607219411, 30612.591578077267, 14305.518782796715, 0.008, -0.006, 0.972, 192.0, 0.0, 0.0, 0.0, 0.0, 0.0, 0.0, 0.0, 0.0, 0.0, 1.684848206176379E9, 0.0, 2023-05-23 15:23:26.176
113.0, 27392.37575440118, 33645.924466362536, 21733.91988681792, -18489.765344830197, -4983.902571666547, 6505.922258606227, 30621.33111015929, 14327.825823763113, 0.008, -0.006, 0.972, 192.0, 0.0, 0.0, 0.0, 0.0, 0.0, 0.0, 0.0, 0.0, 0.0, 1.684848206176382E9, 0.0, 2023-05-23 15:23:26.176
114.0, 27373.734399525452, 33635.709719146456, 21714.80914530863, -18504.361033959514, -4987.5906095016735, 6505.8328516284055, 30620.079412469797, 14337.794701790179, 0.008, -0.006, 0.972, 192.0, 0.0, 0.0, 0.0, 0.0, 0.0, 0.0, 0.0, 0.0, 0.0, 1.684848206176386E9, 0.0, 2023-05-23 15:23:26.176
115.0, 27362.357361597704, 33617.47069567093, 21705.756688804235, -18493.431030920867, -4969.93273138198, 6493.829964855906, 30631.478802142003, 14363.208635235864, 0.008, -0.006, 0.972, 192.0, 0.0, 0.0, 0.0, 0.0, 0.0, 0.0, 0.0, 0.0, 0.0, 1.684848206176389E9, 0.0, 2023-05-23 15:23:26.176
116.0, 27378.137693183147, 33626.59020740869, 21735.529212418704, -18519.560220189123, -4988.261161835332, 6464.146848219258, 30620.727613059, 14336.565355845138, 0.008, -0.006, 0.972, 192.0, 0.0, 0.0, 0.0, 0.0, 0.0, 0.0, 0.0, 0.0, 0.0, 1.684848206176397E9, 0.0, 2023-05-23 15:23:26.176
117.0, 27384.03855371935, 33635.217980768444, 21739.798395609665, -18525.751653403244, -4999.414682318531, 6462.023432496004, 30605.841351251765, 14306.703425252847, 0.008, -0.006, 0.972, 192.0, 0.0, 0.0, 0.0, 0.0, 0.0, 0.0, 0.0, 0.0, 0.0, 1.684848206176401E9, 0.0, 2023-05-23 15:23:26.176
118.0, 27375.097855937227, 33629.339471976695, 21734.232811240294, -18500.13655425746, -4992.1280136261, 6482.832906583894, 30605.930758229588, 14320.02506494821, 0.008, -0.006, 0.972, 192.0, 0.0, 0.0, 0.0, 0.0, 0.0, 0.0, 0.0, 0.0, 0.0, 1.684848206176404E9, 0.0, 2023-05-23 15:23:26.176
119.0, 27367.18533840005, 33623.8856463296, 21722.6769593569, -18507.110298527517, -4994.162022371534, 6490.9242380767155, 30605.327261129292, 14326.529422584705, 0.008, -0.008, 0.97, 192.0, 0.0, 64.0, 255.0, 192.0, 30.0, 80.0, 0.0, 0.0, 0.0, 1.684848206176407E9, 0.0, 2023-05-23 15:23:26.176
120.0, 27374.13673092565, 33628.646567898584, 21734.523383918215, -18506.931484571873, -4989.043472891268, 6483.548162406464, 30622.493400870968, 14351.921004285932, 0.008, -0.008, 0.97, 192.0, 0.0, 0.0, 0.0, 0.0, 0.0, 0.0, 0.0, 0.0, 0.0, 1.684848206176411E9, 0.0, 2023-05-23 15:23:26.176
121.0, 27385.379658386668, 33633.809820867755, 21740.603058410055, -18519.00142657774, -4990.27281883631, 6467.052574998448, 30611.33988038777, 14332.631448821003, 0.008, -0.008, 0.97, 192.0, 0.0, 0.0, 0.0, 0.0, 0.0, 0.0, 0.0, 0.0, 0.0, 1.684848206236201E9, 0.0, 2023-05-23 15:23:26.236
122.0, 27374.51671058139, 33623.46096318495, 21728.846040826564, -18526.913944114916, -4987.680016479495, 6464.303310430445, 30597.10181916974, 14306.97164618631, 0.008, -0.008, 0.97, 192.0, 0.0, 0.0, 0.0, 0.0, 0.0, 0.0, 0.0, 0.0, 0.0, 1.684848206236208E9, 0.0, 2023-05-23 15:23:26.236
123.0, 27365.37484709917, 33621.62812013961, 21723.615732624025, -18520.47664171179, -4969.105716837134, 6479.23427572659, 30608.612967564222, 14319.712140525835, 0.008, -0.008, 0.97, 192.0, 0.0, 0.0, 0.0, 0.0, 0.0, 0.0, 0.0, 0.0, 0.0, 1.684848206236212E9, 0.0, 2023-05-23 15:23:26.236
124.0, 27365.978344199462, 33625.40556495256, 21720.262970955726, -18516.363920732012, -4971.631463960584, 6487.839697341883, 30602.466237839013, 14317.208745146841, 0.008, -0.008, 0.97, 192.0, 0.0, 0.0, 0.0, 0.0, 0.0, 0.0, 0.0, 0.0, 0.0, 1.684848206236216E9, 0.0, 2023-05-23 15:23:26.236
125.0, 27354.89187894963, 33616.01783228133, 21716.619636609514, -18527.115109815015, -4973.821934917204, 6480.508325160543, 30608.76942977541, 14337.794701790179, 0.008, -0.008, 0.97, 192.0, 0.0, 0.0, 0.0, 0.0, 0.0, 0.0, 0.0, 0.0, 0.0, 1.684848206236221E9, 0.0, 2023-05-23 15:23:26.236
126.0, 27349.862736447187, 33611.27926245681, 21712.551619118647, -18533.217136051313, -4965.574141213196, 6458.8718365278055, 30604.612005306724, 14317.991056202776, 0.008, -0.008, 0.97, 192.0, 0.0, 0.0, 0.0, 0.0, 0.0, 0.0, 0.0, 0.0, 0.0, 1.684848206236226E9, 0.0, 2023-05-23 15:23:26.236
127.0, 27363.542004053834, 33618.56593114924, 21720.732357589288, -18513.592304419555, -4974.336025039676, 6452.456885869132, 30586.328278342284, 14287.033890132177, 0.008, -0.008, 0.97, 192.0, 0.0, 0.0, 0.0, 0.0, 0.0, 0.0, 0.0, 0.0, 0.0, 1.684848206236232E9, 0.0, 2023-05-23 15:23:26.236
128.0, 27371.365114613192, 33629.16065802106, 21739.172546764916, -18509.904266584428, -4957.236940531367, 6467.723127332107, 30585.277746352884, 14303.015387417721, 0.008, -0.008, 0.97, 192.0, 0.0, 0.0, 0.0, 0.0, 0.0, 0.0, 0.0, 0.0, 0.0, 1.684848206236247E9, 0.0, 2023-05-23 15:23:26.236
129.0, 27371.6109838022, 33636.11205054665, 21754.572898694623, -18502.505839169724, -4977.264103563321, 6481.581208894398, 30588.29523185435, 14324.137785927986, 0.004, -0.01, 0.978, 192.0, 0.0, 32.0, 255.0, 176.0, 30.0, 144.0, 0.0, 0.0, 0.0, 1.68484820623625E9, 0.0, 2023-05-23 15:23:26.236
130.0, 27369.84519599023, 33629.89826558808, 21744.26874450073, -18491.799353575632, -4988.395272302065, 6484.889267073783, 30608.456505353035, 14357.441885166394, 0.004, -0.01, 0.978, 192.0, 0.0, 0.0, 0.0, 0.0, 0.0, 0.0, 0.0, 0.0, 0.0, 1.684848206236253E9, 0.0, 2023-05-23 15:23:26.236
131.0, 27361.396236586123, 33618.588282893696, 21731.952933305853, -18541.3755227775, -4996.441900305975, 6469.511266888531, 30594.374906346195, 14333.279649410208, 0.004, -0.01, 0.978, 192.0, 0.0, 0.0, 0.0, 0.0, 0.0, 0.0, 0.0, 0.0, 0.0, 1.684848206236256E9, 0.0, 2023-05-23 15:23:26.236
132.0, 27370.51574832389, 33625.24910274138, 21729.606000138047, -18540.079121599094, -4985.646007734062, 6461.196417951157, 30575.688847981557, 14298.88031469349, 0.004, -0.01, 0.978, 192.0, 0.0, 0.0, 0.0, 0.0, 0.0, 0.0, 0.0, 0.0, 0.0, 1.684848206236259E9, 0.0, 2023-05-23 15:23:26.236
133.0, 27373.600289058722, 33628.69127138749, 21733.20463099535, -18503.399908947937, -4974.939522139969, 6473.735746590584, 30585.970650430998, 14316.337027113084, 0.004, -0.01, 0.978, 192.0, 0.0, 0.0, 0.0, 0.0, 0.0, 0.0, 0.0, 0.0, 0.0, 1.684848206236262E9, 0.0, 2023-05-23 15:23:26.236
134.0, 27358.17758538456, 33619.8846840721, 21727.77315709271, -18499.778926346175, -4984.729586211394, 6483.101127517358, 30595.44779008005, 14330.195108675374, 0.004, -0.01, 0.978, 192.0, 0.0, 0.0, 0.0, 0.0, 0.0, 0.0, 0.0, 0.0, 0.0, 1.684848206236265E9, 0.0, 2023-05-23 15:23:26.236
135.0, 27357.88701270664, 33622.902169573565, 21730.947104805364, -18505.27745548218, -4968.546923225752, 6478.451964670654, 30617.710127557533, 14356.614870621548, 0.004, -0.01, 0.978, 192.0, 0.0, 0.0, 0.0, 0.0, 0.0, 0.0, 0.0, 0.0, 0.0, 1.684848206236268E9, 0.0, 2023-05-23 15:23:26.236
136.0, 27368.079408178262, 33623.93034981851, 21723.571029135113, -18506.730318871774, -4995.816051461226, 6466.538484875976, 30607.495380341457, 14333.59257383258, 0.004, -0.01, 0.978, 192.0, 0.0, 0.0, 0.0, 0.0, 0.0, 0.0, 0.0, 0.0, 0.0, 1.684848206296616E9, 0.0, 2023-05-23 15:23:26.296
137.0, 27378.98705947245, 33628.713623131945, 21760.719628419833, -18499.4660019238, -4993.5808770156955, 6467.119630231814, 30592.363249345217, 14302.59070427307, 0.004, -0.01, 0.978, 192.0, 0.0, 0.0, 0.0, 0.0, 0.0, 0.0, 0.0, 0.0, 0.0, 1.684848206296625E9, 0.0, 2023-05-23 15:23:26.296
138.0, 27377.42243736058, 33631.70875688896, 21753.902346360966, -18480.154094714417, -4964.344795268154, 6483.9951972955705, 30607.76360127492, 14320.74032077078, 0.004, -0.01, 0.978, 192.0, 0.0, 0.0, 0.0, 0.0, 0.0, 0.0, 0.0, 0.0, 0.0, 1.68484820629663E9, 0.0, 2023-05-23 15:23:26.296
139.0, 27372.08037043576, 33631.172315022035, 21718.519534888215, -18466.251309663214, -4985.914228667525, 6493.472336944621, 30606.78012451889, 14326.708236540348, 0.002, -0.01, 0.976, 192.0, 0.0, 16.0, 255.0, 176.0, 30.0, 128.0, 0.0, 0.0, 0.0, 1.684848206296635E9, 0.0, 2023-05-23 15:23:26.296
140.0, 27365.397198843624, 33625.53967541929, 21707.656587082933, -18504.89747582644, -4984.036682133279, 6497.942685835682, 30618.8277147803, 14357.955975288865, 0.002, -0.01, 0.976, 192.0, 0.0, 0.0, 0.0, 0.0, 0.0, 0.0, 0.0, 0.0, 0.0, 1.68484820629664E9, 0.0, 2023-05-23 15:23:26.296
141.0, 27363.139672653637, 33617.403640437566, 21714.138592974974, -18525.61754293651, -4997.984170673391, 6475.657996613741, 30604.880226240188, 14329.83748076409, 0.002, -0.01, 0.976, 192.0, 0.0, 0.0, 0.0, 0.0, 0.0, 0.0, 0.0, 0.0, 0.0, 1.684848206296645E9, 0.0, 2023-05-23 15:23:26.296
142.0, 27363.966687198485, 33615.95077704797, 21719.30184594415, -18522.175374290393, -4991.278647336799, 6455.831999281883, 30578.99690616094, 14284.06110811962, 0.002, -0.01, 0.976, 192.0, 0.0, 0.0, 0.0, 0.0, 0.0, 0.0, 0.0, 0.0, 0.0, 1.68484820629665E9, 0.0, 2023-05-23 15:23:26.296
143.0, 27358.110530151193, 33614.54261714729, 21706.091964971063, -18519.60492367803, -4962.780173156282, 6466.337319175878, 30592.027973178385, 14299.416756560417, 0.002, -0.01, 0.976, 192.0, 0.0, 0.0, 0.0, 0.0, 0.0, 0.0, 0.0, 0.0, 0.0, 1.684848206296654E9, 0.0, 2023-05-23 15:23:26.296
144.0, 27350.198012614015, 33610.51930314533, 21706.024909737698, -18510.016025306704, -4963.182504556478, 6475.278016958001, 30600.63339479368, 14312.604285789048, 0.002, -0.01, 0.976, 192.0, 0.0, 0.0, 0.0, 0.0, 0.0, 0.0, 0.0, 0.0, 0.0, 1.684848206296658E9, 0.0, 2023-05-23 15:23:26.296
145.0, 27333.233038572438, 33592.95083200346, 21700.191104434864, -18530.847851139053, -4973.6207692171065, 6468.237217454579, 30609.68585129808, 14338.621716335025, 0.002, -0.01, 0.976, 192.0, 0.0, 0.0, 0.0, 0.0, 0.0, 0.0, 0.0, 0.0, 0.0, 1.684848206296662E9, 0.0, 2023-05-23 15:23:26.296
146.0, 27347.02406490136, 33609.982861278404, 21720.508840144736, -18522.71181615732, -5007.260144622343, 6451.115781201814, 30599.359345359728, 14311.665512521926, 0.002, -0.01, 0.976, 192.0, 0.0, 0.0, 0.0, 0.0, 0.0, 0.0, 0.0, 0.0, 0.0, 1.684848206296666E9, 0.0, 2023-05-23 15:23:26.296
147.0, 27356.143576639126, 33620.264663727845, 21747.621506169024, -18511.62535090749, -5007.260144622343, 6449.819380023406, 30583.95899343002, 14276.819142916102, 0.002, -0.01, 0.976, 192.0, 0.0, 0.0, 0.0, 0.0, 0.0, 0.0, 0.0, 0.0, 0.0, 1.684848206296672E9, 0.0, 2023-05-23 15:23:26.296
148.0, 27351.852041703707, 33607.92650078851, 21725.314465202628, -18521.08013881208, -4991.36805431462, 6465.264435442024, 30590.016316177407, 14291.34777681205, 0.002, -0.01, 0.976, 192.0, 0.0, 0.0, 0.0, 0.0, 0.0, 0.0, 0.0, 0.0, 0.0, 1.684848206296677E9, 0.0, 2023-05-23 15:23:26.296
149.0, 27356.478852805958, 33611.0333932678, 21703.34270040306, -18517.213287021314, -4987.031815890291, 6475.210961724635, 30591.983269689474, 14299.126183882498, 0.002, -0.01, 0.966, 192.0, 0.0, 16.0, 255.0, 176.0, 30.0, 48.0, 0.0, 0.0, 0.0, 1.684848206296681E9, 0.0, 2023-05-23 15:23:26.296
150.0, 27347.962838168485, 33606.339526932185, 21703.16388644742, -18507.75849911672, -4984.640179233573, 6469.712432588629, 30605.662537296124, 14326.864698751533, 0.002, -0.01, 0.966, 192.0, 0.0, 0.0, 0.0, 0.0, 0.0, 0.0, 0.0, 0.0, 0.0, 1.684848206296701E9, 0.0, 2023-05-23 15:23:26.296
151.0, 27347.35934106819, 33603.344393175175, 21713.468040641314, -18510.261894495714, -4999.884068952092, 6452.792162035962, 30597.370040103204, 14308.893896209467, 0.002, -0.01, 0.966, 192.0, 0.0, 0.0, 0.0, 0.0, 0.0, 0.0, 0.0, 0.0, 0.0, 1.684848206356841E9, 0.0, 2023-05-23 15:23:26.356
152.0, 27354.534251038345, 33611.81570432374, 21727.102604759053, -18529.350284260545, -4996.710121239438, 6451.853388768839, 30585.255394608426, 14276.595625471547, 0.002, -0.01, 0.966, 192.0, 0.0, 0.0, 0.0, 0.0, 0.0, 0.0, 0.0, 0.0, 0.0, 1.684848206356852E9, 0.0, 2023-05-23 15:23:26.356
153.0, 27357.015294672885, 33618.230654982406, 21742.502956688757, -18528.344455760056, -4967.228170302888, 6468.550141876954, 30595.358383102226, 14299.21559086032, 0.002, -0.01, 0.966, 192.0, 0.0, 0.0, 0.0, 0.0, 0.0, 0.0, 0.0, 0.0, 0.0, 1.684848206356857E9, 0.0, 2023-05-23 15:23:26.356
154.0, 27355.6071347722, 33616.554274148264, 21719.704177344345, -18516.207458520825, -4987.948237412958, 6479.61425538233, 30592.027973178385, 14312.64898927796, 0.002, -0.01, 0.966, 192.0, 0.0, 0.0, 0.0, 0.0, 0.0, 0.0, 0.0, 0.0, 0.0, 1.684848206356861E9, 0.0, 2023-05-23 15:23:26.356
155.0, 27348.36516956868, 33607.61357636614, 21692.7703252757, -18520.119013800504, -4988.551734513251, 6477.7143571036295, 30600.164008160118, 14335.157195944454, 0.002, -0.01, 0.966, 192.0, 0.0, 0.0, 0.0, 0.0, 0.0, 0.0, 0.0, 0.0, 0.0, 1.684848206356866E9, 0.0, 2023-05-23 15:23:26.356
156.0, 27364.681943021053, 33616.71073635945, 21716.127898231494, -18511.22301950729, -4985.2436763338665, 6468.751307577051, 30600.81220874932, 14315.93469571289, 0.002, -0.01, 0.966, 192.0, 0.0, 0.0, 0.0, 0.0, 0.0, 0.0, 0.0, 0.0, 0.0, 1.684848206356871E9, 0.0, 2023-05-23 15:23:26.356
157.0, 27363.85492847621, 33618.81180033825, 21740.312485732138, -18513.078214297082, -4987.210629845933, 6477.379080936799, 30595.470141824502, 14293.627654746493, 0.002, -0.01, 0.966, 192.0, 0.0, 0.0, 0.0, 0.0, 0.0, 0.0, 0.0, 0.0, 0.0, 1.684848206356876E9, 0.0, 2023-05-23 15:23:26.356
158.0, 27358.065826662285, 33617.31423345974, 21724.73331984679, -18508.831382850574, -4970.826801160193, 6496.065139301436, 30589.09989465474, 14306.323445597107, 0.002, -0.01, 0.966, 192.0, 0.0, 0.0, 0.0, 0.0, 0.0, 0.0, 0.0, 0.0, 0.0, 1.68484820635688E9, 0.0, 2023-05-23 15:23:26.356
159.0, 27358.26699236238, 33614.22969272491, 21705.756688804235, -18502.4164321919, -4971.787926171771, 6497.9650375801375, 30581.746170728944, 14308.335102598085, 0.002, -0.004, 0.968, 192.0, 0.0, 16.0, 255.0, 224.0, 30.0, 64.0, 0.0, 0.0, 0.0, 1.684848206356885E9, 0.0, 2023-05-23 15:23:26.356
160.0, 27351.13678588114, 33612.575663635216, 21709.087098728072, -18479.014155747194, -4985.802469945249, 6497.383892224299, 30605.327261129292, 14337.973515745822, 0.002, -0.004, 0.968, 192.0, 0.0, 0.0, 0.0, 0.0, 0.0, 0.0, 0.0, 0.0, 0.0, 1.68484820635689E9, 0.0, 2023-05-23 15:23:26.356
161.0, 27359.429283074056, 33618.3871171936, 21720.710005844834, -18458.718771781776, -4994.631409005095, 6485.1127845183355, 30601.348650616248, 14326.082387695598, 0.002, -0.004, 0.968, 192.0, 0.0, 0.0, 0.0, 0.0, 0.0, 0.0, 0.0, 0.0, 0.0, 1.684848206356895E9, 0.0, 2023-05-23 15:23:26.356
162.0, 27369.398161101122, 33623.57272190723, 21733.741072862278, -18487.99955701823, -4996.777176472804, 6475.657996613741, 30583.467255052004, 14292.331253568085, 0.002, -0.004, 0.968, 192.0, 0.0, 0.0, 0.0, 0.0, 0.0, 0.0, 0.0, 0.0, 0.0, 1.6848482063569E9, 0.0, 2023-05-23 15:23:26.356
163.0, 27369.66638203459, 33627.70779463146, 21738.524346175713, -18502.639949636454, -4975.878295407092, 6485.850392085361, 30592.407952834124, 14302.702462995347, 0.002, -0.004, 0.968, 192.0, 0.0, 0.0, 0.0, 0.0, 0.0, 0.0, 0.0, 0.0, 0.0, 1.684848206356905E9, 0.0, 2023-05-23 15:23:26.356
164.0, 27367.073579677774, 33625.293806230286, 21727.81786058162, -18509.591342162053, -4982.114432110123, 6489.247857242568, 30596.364211602715, 14307.508088053239, 0.002, -0.004, 0.968, 192.0, 0.0, 0.0, 0.0, 0.0, 0.0, 0.0, 0.0, 0.0, 0.0, 1.68484820635691E9, 0.0, 2023-05-23 15:23:26.356
165.0, 27352.70140799301, 33616.2860532148, 21719.882991299986, -18520.029606822685, -4980.281589064788, 6486.923275819216, 30611.764563532422, 14334.352533144061, 0.002, -0.004, 0.968, 192.0, 0.0, 0.0, 0.0, 0.0, 0.0, 0.0, 0.0, 0.0, 0.0, 1.684848206356915E9, 0.0, 2023-05-23 15:23:26.356
166.0, 27349.572163769266, 33612.218035723934, 21719.659473855434, -18533.641819195964, -5011.618734791128, 6470.181819222191, 30608.7247262865, 14318.259277136242, 0.002, -0.004, 0.968, 192.0, 0.0, 0.0, 0.0, 0.0, 0.0, 0.0, 0.0, 0.0, 0.0, 1.684848206416996E9, 0.0, 2023-05-23 15:23:26.416
167.0, 27364.391370343135, 33616.66603287054, 21722.520497145713, -18527.785662148675, -5011.976362702413, 6462.693984829662, 30588.965784188007, 14283.770535441701, 0.002, -0.004, 0.968, 192.0, 0.0, 0.0, 0.0, 0.0, 0.0, 0.0, 0.0, 0.0, 0.0, 1.684848206417004E9, 0.0, 2023-05-23 15:23:26.417
168.0, 27366.98417269995, 33620.9352160615, 21723.749843090754, -18498.147249000936, -4992.217420603922, 6479.994235038071, 30593.257319123426, 14300.802564716645, 0.002, -0.004, 0.968, 192.0, 0.0, 0.0, 0.0, 0.0, 0.0, 0.0, 0.0, 0.0, 0.0, 1.684848206417357E9, 0.0, 2023-05-23 15:23:26.417
169.0, 27360.12218715217, 33621.04697478378, 21725.73914834728, -18507.847906094543, -4986.808298445738, 6490.901886332261, 30593.704354012534, 14311.73256775529, 0.002, -0.01, 0.972, 192.0, 0.0, 16.0, 255.0, 176.0, 30.0, 96.0, 0.0, 0.0, 0.0, 1.684848206417362E9, 0.0, 2023-05-23 15:23:26.417
170.0, 27345.638256745133, 33607.121837988125, 21713.222171452308, -18525.684598169875, -4974.760708184327, 6483.771679851017, 30614.267958911416, 14341.281573925207, 0.002, -0.01, 0.972, 192.0, 0.0, 0.0, 0.0, 0.0, 0.0, 0.0, 0.0, 0.0, 0.0, 1.684848206417367E9, 0.0, 2023-05-23 15:23:26.417
171.0, 27345.54884976731, 33596.88473902759, 21699.81112477912, -18522.309484757126, -4987.814126946227, 6465.555008119943, 30605.30490938484, 14321.12030042652, 0.002, -0.01, 0.972, 192.0, 0.0, 0.0, 0.0, 0.0, 0.0, 0.0, 0.0, 0.0, 0.0, 1.68484820641738E9, 0.0, 2023-05-23 15:23:26.417
172.0, 27360.79273948583, 33610.02756476731, 21717.35724417654, -18498.750746101232, -4980.750975698349, 6459.9894237505705, 30588.451694065538, 14284.955177897833, 0.002, -0.01, 0.972, 192.0, 0.0, 0.0, 0.0, 0.0, 0.0, 0.0, 0.0, 0.0, 0.0, 1.684848206417384E9, 0.0, 2023-05-23 15:23:26.417
173.0, 27357.93171619555, 33615.32492820322, 21723.995712279764, -18500.047147279638, -4948.810332871715, 6481.469450172121, 30596.319508113804, 14298.835611204579, 0.002, -0.01, 0.972, 192.0, 0.0, 0.0, 0.0, 0.0, 0.0, 0.0, 0.0, 0.0, 0.0, 1.684848206417389E9, 0.0, 2023-05-23 15:23:26.417
174.0, 27356.70237025051, 33619.16942824953, 21720.173563977907, -18511.111260785015, -4967.205818558433, 6489.404319453754, 30589.72574349949, 14295.929884425388, 0.002, -0.01, 0.972, 192.0, 0.0, 0.0, 0.0, 0.0, 0.0, 0.0, 0.0, 0.0, 0.0, 1.684848206417393E9, 0.0, 2023-05-23 15:23:26.417
175.0, 27349.348646324714, 33611.68159385701, 21713.44568889686, -18517.481507954777, -4984.863696678126, 6485.515115918532, 30607.741249530467, 14324.40600686145, 0.002, -0.01, 0.972, 192.0, 0.0, 0.0, 0.0, 0.0, 0.0, 0.0, 0.0, 0.0, 0.0, 1.684848206417397E9, 0.0, 2023-05-23 15:23:26.417
176.0, 27357.954067940005, 33613.961471791445, 21729.896572815964, -18509.85956309552, -4994.452595049453, 6476.686176858685, 30604.634357051178, 14313.811279989635, 0.002, -0.01, 0.972, 192.0, 0.0, 0.0, 0.0, 0.0, 0.0, 0.0, 0.0, 0.0, 0.0, 1.684848206417402E9, 0.0, 2023-05-23 15:23:26.417
177.0, 27368.772312256377, 33622.924521318026, 21741.675942143913, -18500.740051357752, -5002.521574797818, 6481.111822260836, 30586.663554509112, 14284.262273819719, 0.002, -0.01, 0.972, 192.0, 0.0, 0.0, 0.0, 0.0, 0.0, 0.0, 0.0, 0.0, 0.0, 1.684848206417406E9, 0.0, 2023-05-23 15:23:26.417
178.0, 27370.716914023986, 33626.03141379731, 21742.078273544106, -18491.41937391989, -4983.790812944271, 6495.9086770902495, 30599.068772681807, 14307.485736308783, 0.002, -0.01, 0.972, 192.0, 0.0, 0.0, 0.0, 0.0, 0.0, 0.0, 0.0, 0.0, 0.0, 1.68484820641741E9, 0.0, 2023-05-23 15:23:26.417
179.0, 27363.251431375913, 33618.34241370468, 21713.289226685672, -18490.055917508118, -4977.062937863224, 6506.52575570652, 30615.072621711806, 14323.623695805514, 0.002, -0.008, 0.966, 192.0, 0.0, 16.0, 255.0, 192.0, 30.0, 48.0, 0.0, 0.0, 0.0, 1.684848206417415E9, 0.0, 2023-05-23 15:23:26.417
180.0, 27354.534251038345, 33609.26760545583, 21695.184313676873, -18503.60107464803, -4958.2427690318555, 6508.783281896506, 30640.88888655769, 14358.26889971124, 0.002, -0.008, 0.966, 192.0, 0.0, 0.0, 0.0, 0.0, 0.0, 0.0, 0.0, 0.0, 0.0, 1.684848206417419E9, 0.0, 2023-05-23 15:23:26.417
181.0, 27348.186355613037, 33604.0820007422, 21691.85390375303, -18509.680749139876, -4943.580024669173, 6489.180802009202, 30635.211543466037, 14338.308791912652, 0.002, -0.008, 0.966, 192.0, 0.0, 0.0, 0.0, 0.0, 0.0, 0.0, 0.0, 0.0, 0.0, 1.684848206476328E9, 0.0, 2023-05-23 15:23:26.476
182.0, 27357.439977817536, 33614.14028574709, 21709.645892339457, -18481.18227495936, -4982.382653043586, 6482.81055483944, 30617.62072057971, 14299.752032727247, 0.002, -0.008, 0.966, 192.0, 0.0, 0.0, 0.0, 0.0, 0.0, 0.0, 0.0, 0.0, 0.0, 1.684848206476336E9, 0.0, 2023-05-23 15:23:26.476
183.0, 27359.56339354079, 33619.72822186092, 21713.06570924112, -18489.5641791301, -4990.161060114034, 6497.406243968755, 30617.44190662407, 14312.44782357786, 0.002, -0.008, 0.966, 192.0, 0.0, 0.0, 0.0, 0.0, 0.0, 0.0, 0.0, 0.0, 0.0, 1.684848206476339E9, 0.0, 2023-05-23 15:23:26.476
184.0, 27358.33404759575, 33618.90120731607, 21718.027796510196, -18495.33092919957, -4986.763594956827, 6503.3071045049555, 30608.56826407531, 14320.78502425969, 0.002, -0.008, 0.966, 192.0, 0.0, 0.0, 0.0, 0.0, 0.0, 0.0, 0.0, 0.0, 0.0, 1.684848206476342E9, 0.0, 2023-05-23 15:23:26.476
185.0, 27358.714027251488, 33611.18985547899, 21725.560334391634, -18472.5097981107, -4988.104699624146, 6494.992255567581, 30620.280578169895, 14343.27087918173, 0.002, -0.008, 0.966, 192.0, 0.0, 0.0, 0.0, 0.0, 0.0, 0.0, 0.0, 0.0, 0.0, 1.684848206476345E9, 0.0, 2023-05-23 15:23:26.476
186.0, 27360.882146463653, 33609.22290196692, 21729.87422107151, -18495.889722810953, -4994.474946793908, 6476.864990814328, 30611.451639110048, 14328.384617374495, 0.002, -0.008, 0.966, 192.0, 0.0, 0.0, 0.0, 0.0, 0.0, 0.0, 0.0, 0.0, 0.0, 1.684848206476349E9, 0.0, 2023-05-23 15:23:26.476
187.0, 27368.437036089545, 33616.15194274807, 21732.9811135508, -18512.966455574806, -4970.55858022673, 6471.299406444956, 30600.96867096051, 14298.098003637553, 0.002, -0.008, 0.966, 192.0, 0.0, 0.0, 0.0, 0.0, 0.0, 0.0, 0.0, 0.0, 0.0, 1.684848206476352E9, 0.0, 2023-05-23 15:23:26.476
188.0, 27363.363190098193, 33622.81276259575, 21721.40290992295, -18503.936350814864, -4962.60135920064, 6493.42763345571, 30611.54104608787, 14314.906515467945, 0.002, -0.008, 0.966, 192.0, 0.0, 0.0, 0.0, 0.0, 0.0, 0.0, 0.0, 0.0, 0.0, 1.684848206476355E9, 0.0, 2023-05-23 15:23:26.476
189.0, 27358.89284120713, 33617.42599218202, 21707.50012487175, -18504.13751651496, -4978.091118108167, 6508.671523174229, 30613.686813555578, 14321.232059148797, 0.004, -0.008, 0.968, 192.0, 0.0, 32.0, 255.0, 192.0, 30.0, 64.0, 0.0, 0.0, 0.0, 1.684848206476358E9, 0.0, 2023-05-23 15:23:26.476
190.0, 27358.289344106837, 33610.72046884542, 21699.408793378927, -18490.23473146376, -4968.703385436939, 6510.616124941841, 30625.82381079481, 14342.130940214509, 0.004, -0.008, 0.968, 192.0, 0.0, 0.0, 0.0, 0.0, 0.0, 0.0, 0.0, 0.0, 0.0, 1.684848206476361E9, 0.0, 2023-05-23 15:23:26.476
191.0, 27364.547832554323, 33614.02852702481, 21707.701290571844, -18490.45824890831, -4988.261161835332, 6496.467470701632, 30628.863648040733, 14330.150405186465, 0.004, -0.008, 0.968, 192.0, 0.0, 0.0, 0.0, 0.0, 0.0, 0.0, 0.0, 0.0, 0.0, 1.684848206476364E9, 0.0, 2023-05-23 15:23:26.476
192.0, 27367.587669800243, 33613.760306091346, 21719.257142455237, -18467.391248630436, -4996.128975883601, 6486.90092407476, 30605.9754617185, 14297.405099559439, 0.004, -0.008, 0.968, 192.0, 0.0, 0.0, 0.0, 0.0, 0.0, 0.0, 0.0, 0.0, 0.0, 1.684848206476379E9, 0.0, 2023-05-23 15:23:26.476
193.0, 27364.212556387494, 33616.21899798143, 21727.34847394806, -18477.71775456879, -4985.981283900891, 6496.422767212721, 30596.118342413705, 14303.440070562372, 0.004, -0.008, 0.968, 192.0, 0.0, 0.0, 0.0, 0.0, 0.0, 0.0, 0.0, 0.0, 0.0, 1.684848206476382E9, 0.0, 2023-05-23 15:23:26.476
194.0, 27363.519652309376, 33620.59993989467, 21725.068596013618, -18481.85282729302, -4976.191219829467, 6508.738578407595, 30596.028935435887, 14312.40312008895, 0.004, -0.008, 0.968, 192.0, 0.0, 0.0, 0.0, 0.0, 0.0, 0.0, 0.0, 0.0, 0.0, 1.684848206476385E9, 0.0, 2023-05-23 15:23:26.476
195.0, 27367.475911077967, 33617.42599218202, 21718.92186628841, -18473.13564695545, -4964.143629568056, 6508.0009708405705, 30623.745098560466, 14343.762617559745, 0.004, -0.008, 0.968, 192.0, 0.0, 0.0, 0.0, 0.0, 0.0, 0.0, 0.0, 0.0, 0.0, 1.684848206476389E9, 0.0, 2023-05-23 15:23:26.476
196.0, 27376.17073967108, 33617.113067759645, 21715.613808109025, -18479.930577269864, -4983.5449437552625, 6485.828040340905, 30621.867552026222, 14317.11933816902, 0.004, -0.008, 0.968, 192.0, 0.0, 0.0, 0.0, 0.0, 0.0, 0.0, 0.0, 0.0, 0.0, 1.684848206536239E9, 0.0, 2023-05-23 15:23:26.536
197.0, 27373.13090242516, 33619.99644279438, 21720.374729678006, -18496.940254800353, -5000.576973030206, 6480.396566438266, 30601.080429682785, 14276.930901638378, 0.004, -0.008, 0.968, 192.0, 0.0, 0.0, 0.0, 0.0, 0.0, 0.0, 0.0, 0.0, 0.0, 1.684848206536249E9, 0.0, 2023-05-23 15:23:26.536
198.0, 27375.388428615148, 33626.903131831066, 21735.64097114098, -18481.22697844827, -4978.895780908559, 6499.417900969733, 30608.277691397394, 14300.333178083085, 0.004, -0.008, 0.968, 192.0, 0.0, 0.0, 0.0, 0.0, 0.0, 0.0, 0.0, 0.0, 0.0, 1.684848206536252E9, 0.0, 2023-05-23 15:23:26.536
199.0, 27372.37094311368, 33622.81276259575, 21720.285322700183, -18464.79844627362, -4955.024117830291, 6516.628744200319, 30609.596444320257, 14321.83555624909, 0.004, -0.008, 0.972, 192.0, 0.0, 32.0, 255.0, 192.0, 30.0, 96.0, 0.0, 0.0, 0.0, 1.684848206536255E9, 0.0, 2023-05-23 15:23:26.536
200.0, 27363.47494882047, 33613.24621596887, 21717.71487208782, -18467.6594695639, -4928.984335539858, 6516.516985478042, 30627.030804995396, 14356.79368457719, 0.004, -0.008, 0.972, 192.0, 0.0, 0.0, 0.0, 0.0, 0.0, 0.0, 0.0, 0.0, 0.0, 1.684848206536258E9, 0.0, 2023-05-23 15:23:26.536
201.0, 27368.6605535341, 33623.59507365168, 21715.47969764229, -18488.670109351886, -4961.617882444606, 6500.490784703587, 30622.895732271165, 14343.181472203909, 0.004, -0.008, 0.972, 192.0, 0.0, 0.0, 0.0, 0.0, 0.0, 0.0, 0.0, 0.0, 0.0, 1.684848206536262E9, 0.0, 2023-05-23 15:23:26.536
202.0, 27368.772312256377, 33625.94200681949, 21716.30671218714, -18494.593321632543, -4983.768461199816, 6491.795956110473, 30600.63339479368, 14297.762727470725, 0.004, -0.008, 0.972, 192.0, 0.0, 0.0, 0.0, 0.0, 0.0, 0.0, 0.0, 0.0, 0.0, 1.684848206536265E9, 0.0, 2023-05-23 15:23:26.536
203.0, 27362.200899386517, 33616.88955031509, 21717.021968009707, -18486.501990139725, -4962.4672487339085, 6504.916430105738, 30610.222293165007, 14321.50028008226, 0.004, -0.008, 0.972, 192.0, 0.0, 0.0, 0.0, 0.0, 0.0, 0.0, 0.0, 0.0, 0.0, 1.684848206536268E9, 0.0, 2023-05-23 15:23:26.536
204.0, 27350.600344014212, 33605.154884476055, 21707.9248080164, -18492.447554164835, -4978.314635552721, 6505.788148139495, 30609.976423975997, 14331.35739938705, 0.004, -0.008, 0.972, 192.0, 0.0, 0.0, 0.0, 0.0, 0.0, 0.0, 0.0, 0.0, 0.0, 1.684848206536272E9, 0.0, 2023-05-23 15:23:26.536
205.0, 27356.568259783777, 33608.731163588905, 21708.952988261342, -18463.345582884023, -4968.613978459118, 6508.783281896506, 30623.499229371457, 14354.35734443156, 0.004, -0.008, 0.972, 192.0, 0.0, 0.0, 0.0, 0.0, 0.0, 0.0, 0.0, 0.0, 0.0, 1.684848206536275E9, 0.0, 2023-05-23 15:23:26.536
206.0, 27367.207690144503, 33614.8331898252, 21711.501087129247, -18485.74203082824, -4969.50804823733, 6499.395549225277, 30615.72082230101, 14335.537175600193, 0.004, -0.008, 0.972, 192.0, 0.0, 0.0, 0.0, 0.0, 0.0, 0.0, 0.0, 0.0, 0.0, 1.684848206536278E9, 0.0, 2023-05-23 15:23:26.536
207.0, 27371.968611713484, 33616.934253804, 21719.77123257771, -18494.32510069908, -4994.921981683014, 6484.755156607051, 30591.223310377994, 14291.213666345318, 0.004, -0.008, 0.972, 192.0, 0.0, 0.0, 0.0, 0.0, 0.0, 0.0, 0.0, 0.0, 0.0, 1.684848206536281E9, 0.0, 2023-05-23 15:23:26.536
208.0, 27363.162024398094, 33617.3365852042, 21716.038491253676, -18480.55642611461, -4985.601304245151, 6494.388758467288, 30599.493455826458, 14304.915285696423, 0.004, -0.008, 0.972, 192.0, 0.0, 0.0, 0.0, 0.0, 0.0, 0.0, 0.0, 0.0, 0.0, 1.684848206536284E9, 0.0, 2023-05-23 15:23:26.536
209.0, 27360.41275983009, 33620.13055326111, 21722.07346225661, -18486.814914562096, -4986.562429256729, 6503.888249860794, 30600.298118626848, 14316.895820724467, 0.004, -0.01, 0.972, 192.0, 0.0, 32.0, 255.0, 176.0, 30.0, 96.0, 0.0, 0.0, 0.0, 1.684848206536287E9, 0.0, 2023-05-23 15:23:26.536
210.0, 27348.36516956868, 33606.58539612119, 21707.030738238187, -18496.448516422333, -4982.919094910514, 6501.80953762645, 30603.00267970594, 14338.867585524034, 0.004, -0.01, 0.972, 192.0, 0.0, 0.0, 0.0, 0.0, 0.0, 0.0, 0.0, 0.0, 0.0, 1.684848206536291E9, 0.0, 2023-05-23 15:23:26.536
211.0, 27352.70140799301, 33606.80891356575, 21697.039508466663, -18501.969397302797, -4981.108603609634, 6484.084604273392, 30596.319508113804, 14328.339913885584, 0.004, -0.01, 0.972, 192.0, 0.0, 0.0, 0.0, 0.0, 0.0, 0.0, 0.0, 0.0, 0.0, 1.684848206596448E9, 0.0, 2023-05-23 15:23:26.596
212.0, 27356.635315017145, 33609.44641941147, 21703.34270040306, -18505.791545604654, -4984.79664144476, 6471.94760703416, 30585.99300217545, 14295.862829192023, 0.004, -0.01, 0.972, 192.0, 0.0, 0.0, 0.0, 0.0, 0.0, 0.0, 0.0, 0.0, 0.0, 1.684848206596457E9, 0.0, 2023-05-23 15:23:26.596
213.0, 27354.42249231607, 33608.84292231118, 21706.58370334908, -18498.728394356775, -4973.6207692171065, 6478.742537348573, 30599.001717448442, 14303.797698473658, 0.004, -0.01, 0.972, 192.0, 0.0, 0.0, 0.0, 0.0, 0.0, 0.0, 0.0, 0.0, 0.0, 1.68484820659646E9, 0.0, 2023-05-23 15:23:26.596
214.0, 27346.822899201263, 33607.27830019931, 21703.745031803257, -18501.120031013495, -4967.8093156587265, 6485.224543240613, 30594.06198192382, 14305.36232058553, 0.004, -0.01, 0.972, 192.0, 0.0, 0.0, 0.0, 0.0, 0.0, 0.0, 0.0, 0.0, 0.0, 1.684848206596476E9, 0.0, 2023-05-23 15:23:26.596
215.0, 27342.71017822149, 33605.62427110961, 21695.229017165784, -18505.299807226635, -4943.781190369272, 6482.296464716967, 30602.10860992773, 14328.45167260786, 0.004, -0.01, 0.972, 192.0, 0.0, 0.0, 0.0, 0.0, 0.0, 0.0, 0.0, 0.0, 0.0, 1.684848206596479E9, 0.0, 2023-05-23 15:23:26.596
216.0, 27344.632428244644, 33600.66218384054, 21696.301900899638, -18488.491295396245, -4966.043527846758, 6471.18764772268, 30604.47789483999, 14321.16500391543, 0.004, -0.01, 0.972, 192.0, 0.0, 0.0, 0.0, 0.0, 0.0, 0.0, 0.0, 0.0, 0.0, 1.684848206596482E9, 0.0, 2023-05-23 15:23:26.596
217.0, 27365.866585477186, 33621.96339630645, 21735.529212418704, -18459.814007260087, -4996.08427239469, 6463.0963162298585, 30591.066848166807, 14283.34585229705, 0.004, -0.01, 0.972, 192.0, 0.0, 0.0, 0.0, 0.0, 0.0, 0.0, 0.0, 0.0, 0.0, 1.684848206596485E9, 0.0, 2023-05-23 15:23:26.596
218.0, 27370.292230879335, 33626.053765541765, 21720.888819800475, -18482.433972648858, -4989.848135691659, 6474.093374501869, 30603.516769828413, 14296.332215825585, 0.004, -0.01, 0.972, 192.0, 0.0, 0.0, 0.0, 0.0, 0.0, 0.0, 0.0, 0.0, 0.0, 1.684848206596488E9, 0.0, 2023-05-23 15:23:26.596
219.0, 27363.676114520564, 33618.431820682505, 21700.772249790698, -18484.93736802785, -4987.344740312665, 6484.3304734624, 30607.942415230566, 14303.64123626247, 0.006, -0.014, 0.974, 192.0, 0.0, 48.0, 255.0, 144.0, 30.0, 112.0, 0.0, 0.0, 0.0, 1.684848206596491E9, 0.0, 2023-05-23 15:23:26.596
220.0, 27361.17271914157, 33615.25787296985, 21696.324252644095, -18481.785772059655, -4970.223304059899, 6491.907714832749, 30627.656653840146, 14336.36419014504, 0.006, -0.014, 0.974, 192.0, 0.0, 0.0, 0.0, 0.0, 0.0, 0.0, 0.0, 0.0, 0.0, 1.684848206596494E9, 0.0, 2023-05-23 15:23:26.596
221.0, 27366.17950989956, 33617.537750904296, 21709.78000280619, -18493.654548365423, -4963.786001656771, 6482.788203094984, 30625.06385148333, 14326.708236540348, 0.006, -0.014, 0.974, 192.0, 0.0, 0.0, 0.0, 0.0, 0.0, 0.0, 0.0, 0.0, 0.0, 1.684848206596497E9, 0.0, 2023-05-23 15:23:26.596
222.0, 27365.75482675491, 33621.60576839516, 21723.571029135113, -18492.581664631565, -4974.26896980631, 6478.8319443263945, 30604.25437739544, 14291.481887278784, 0.006, -0.014, 0.974, 192.0, 0.0, 0.0, 0.0, 0.0, 0.0, 0.0, 0.0, 0.0, 0.0, 1.6848482065965E9, 0.0, 2023-05-23 15:23:26.596
223.0, 27355.718893494475, 33612.24038746839, 21708.550656861145, -18494.727432099276, -4957.929844609481, 6487.213848497135, 30611.6751565546, 14309.095061909566, 0.006, -0.014, 0.974, 192.0, 0.0, 0.0, 0.0, 0.0, 0.0, 0.0, 0.0, 0.0, 0.0, 1.684848206596503E9, 0.0, 2023-05-23 15:23:26.596
224.0, 27348.164003868584, 33608.03825951079, 21698.96175848982, -18500.583589146565, -4972.480830249886, 6497.205078268657, 30622.068717726317, 14322.014370204732, 0.006, -0.014, 0.974, 192.0, 0.0, 0.0, 0.0, 0.0, 0.0, 0.0, 0.0, 0.0, 0.0, 1.684848206596506E9, 0.0, 2023-05-23 15:23:26.596
225.0, 27343.023102643863, 33604.46198039794, 21699.609959079025, -18500.047147279638, -4978.26993206381, 6499.775528881018, 30639.771299334923, 14350.35638217406, 0.006, -0.014, 0.974, 192.0, 0.0, 0.0, 0.0, 0.0, 0.0, 0.0, 0.0, 0.0, 0.0, 1.684848206596509E9, 0.0, 2023-05-23 15:23:26.596
226.0, 27351.51676553688, 33612.7321258464, 21722.45344191235, -18495.733260599765, -4985.869525178615, 6483.637569384286, 30629.556552118847, 14336.543004100682, 0.006, -0.014, 0.974, 192.0, 0.0, 0.0, 0.0, 0.0, 0.0, 0.0, 0.0, 0.0, 0.0, 1.68484820665671E9, 0.0, 2023-05-23 15:23:26.656
227.0, 27364.637239532145, 33624.578550407714, 21733.91988681792, -18469.380553886956, -4987.389443801576, 6470.159467477735, 30600.56633956031, 14294.745241969258, 0.006, -0.014, 0.974, 192.0, 0.0, 0.0, 0.0, 0.0, 0.0, 0.0, 0.0, 0.0, 0.0, 1.684848206656719E9, 0.0, 2023-05-23 15:23:26.656
228.0, 27359.094006907228, 33615.25787296985, 21709.981168506285, -18473.247405677725, -4981.756804198838, 6482.452926928155, 30600.43222909358, 14307.93277119789, 0.006, -0.014, 0.974, 192.0, 0.0, 0.0, 0.0, 0.0, 0.0, 0.0, 0.0, 0.0, 0.0, 1.684848206656722E9, 0.0, 2023-05-23 15:23:26.656
229.0, 27358.490509806936, 33620.2870154723, 21714.965607519818, -18502.908170569917, -4981.55563849874, 6494.098185789369, 30607.20480766354, 14317.45461433585, 0.004, -0.01, 0.978, 192.0, 0.0, 32.0, 255.0, 176.0, 30.0, 144.0, 0.0, 0.0, 0.0, 1.684848206656729E9, 0.0, 2023-05-23 15:23:26.656
230.0, 27350.22036435847, 33612.26273921284, 21708.193028949863, -18501.343548458048, -4962.735469667372, 6500.602543425864, 30626.360252661736, 14344.366114660039, 0.004, -0.01, 0.978, 192.0, 0.0, 0.0, 0.0, 0.0, 0.0, 0.0, 0.0, 0.0, 0.0, 1.684848206656733E9, 0.0, 2023-05-23 15:23:26.656
231.0, 27347.158175368095, 33604.75255307586, 21696.033679966175, -18505.94800781584, -4950.442010216953, 6487.504421175054, 30635.16683997713, 14334.576050588616, 0.004, -0.01, 0.978, 192.0, 0.0, 0.0, 0.0, 0.0, 0.0, 0.0, 0.0, 0.0, 0.0, 1.684848206656736E9, 0.0, 2023-05-23 15:23:26.656
232.0, 27363.6090592872, 33617.09071601519, 21710.383499906482, -18500.85181008003, -4975.74418494036, 6478.809592581939, 30620.749964803454, 14293.068861135109, 0.004, -0.01, 0.978, 192.0, 0.0, 0.0, 0.0, 0.0, 0.0, 0.0, 0.0, 0.0, 0.0, 1.684848206656739E9, 0.0, 2023-05-23 15:23:26.656
233.0, 27358.26699236238, 33615.12376250312, 21716.23965695377, -18503.221094992292, -4975.878295407092, 6495.104014289858, 30619.610025836235, 14307.709253753335, 0.004, -0.01, 0.978, 192.0, 0.0, 0.0, 0.0, 0.0, 0.0, 0.0, 0.0, 0.0, 0.0, 1.684848206656743E9, 0.0, 2023-05-23 15:23:26.656
234.0, 27361.97738194196, 33621.56106490625, 21707.81304929412, -18503.019929292193, -4967.585798214173, 6506.391645239788, 30625.175610205606, 14321.366169615529, 0.004, -0.01, 0.978, 192.0, 0.0, 0.0, 0.0, 0.0, 0.0, 0.0, 0.0, 0.0, 0.0, 1.684848206656746E9, 0.0, 2023-05-23 15:23:26.656
235.0, 27355.249506860913, 33621.516361417336, 21691.25040665274, -18494.99565303274, -4946.284585748266, 6507.553935951464, 30633.356348676247, 14346.958917016855, 0.004, -0.01, 0.978, 192.0, 0.0, 0.0, 0.0, 0.0, 0.0, 0.0, 0.0, 0.0, 0.0, 1.684848206656767E9, 0.0, 2023-05-23 15:23:26.656
236.0, 27358.289344106837, 33623.46096318495, 21695.96662473281, -18473.694440566833, -4965.149458068545, 6493.517040433531, 30622.024014237406, 14329.50220459726, 0.004, -0.01, 0.978, 192.0, 0.0, 0.0, 0.0, 0.0, 0.0, 0.0, 0.0, 0.0, 0.0, 1.68484820665677E9, 0.0, 2023-05-23 15:23:26.656
237.0, 27363.005562186907, 33618.1859514935, 21712.01517725172, -18463.79261777313, -4984.79664144476, 6490.343092720877, 30606.646014052156, 14293.068861135109, 0.004, -0.01, 0.978, 192.0, 0.0, 0.0, 0.0, 0.0, 0.0, 0.0, 0.0, 0.0, 0.0, 1.684848206656774E9, 0.0, 2023-05-23 15:23:26.656
238.0, 27360.949201697018, 33615.32492820322, 21726.25323846975, -18485.674975594877, -4980.885086165081, 6501.273095759523, 30608.05417395284, 14304.200029873853, 0.004, -0.01, 0.978, 192.0, 0.0, 0.0, 0.0, 0.0, 0.0, 0.0, 0.0, 0.0, 0.0, 1.684848206656777E9, 0.0, 2023-05-23 15:23:26.656
239.0, 27367.27474537787, 33623.058631784756, 21720.285322700183, -18499.84598157954, -4970.826801160193, 6503.9553050941595, 30601.259243638426, 14308.335102598085, 0.004, -0.01, 0.978, 192.0, 0.0, 0.0, 0.0, 0.0, 0.0, 0.0, 0.0, 0.0, 0.0, 1.68484820665678E9, 0.0, 2023-05-23 15:23:26.656
240.0, 27360.077483663263, 33619.437649183, 21704.5720463481, -18490.03356576366, -4941.2777949902775, 6508.962095852148, 30618.403031635647, 14338.97934424631, 0.004, -0.01, 0.978, 192.0, 0.0, 0.0, 255.0, 144.0, 30.0, 128.0, 0.0, 0.0, 0.0, 1.684848206656784E9, 0.0, 2023-05-23 15:23:26.656
241.0, 27356.568259783777, 33612.37449793512, 21700.593435835057, -18488.267777951693, -4975.475964006897, 6500.0213980700255, 30624.996796249965, 14340.812187291645, 0.004, -0.01, 0.978, 192.0, 0.0, 0.0, 0.0, 0.0, 0.0, 0.0, 0.0, 0.0, 0.0, 1.684848206717093E9, 0.0, 2023-05-23 15:23:26.717
242.0, 27364.212556387494, 33618.32006196023, 21711.881066784987, -18472.889777766442, -4985.042510633768, 6495.752214879062, 30604.522598328902, 14307.888067708978, 0.004, -0.01, 0.978, 192.0, 0.0, 0.0, 0.0, 0.0, 0.0, 0.0, 0.0, 0.0, 0.0, 1.684848206717104E9, 0.0, 2023-05-23 15:23:26.717
243.0, 27371.47687333547, 33624.53384691881, 21715.792622064666, -18469.89464400943, -4968.211647058922, 6511.867822631339, 30616.883113012685, 14321.612038804536, 0.004, -0.01, 0.978, 192.0, 0.0, 0.0, 0.0, 0.0, 0.0, 0.0, 0.0, 0.0, 0.0, 1.684848206717108E9, 0.0, 2023-05-23 15:23:26.717
244.0, 27366.000695943916, 33623.8856463296, 21709.757651061733, -18471.526321354668, -4972.950216883447, 6523.647191959285, 30618.313624657825, 14330.239812164285, 0.004, -0.01, 0.978, 192.0, 0.0, 0.0, 0.0, 0.0, 0.0, 0.0, 0.0, 0.0, 0.0, 1.684848206717113E9, 0.0, 2023-05-23 15:23:26.717
245.0, 27344.386559055634, 33602.20445420795, 21693.798505520645, -18485.98790001725, -4977.5546762412405, 6524.138930337302, 30625.153258461152, 14354.60321362057, 0.004, -0.01, 0.978, 192.0, 0.0, 0.0, 0.0, 0.0, 0.0, 0.0, 0.0, 0.0, 0.0, 1.684848206717118E9, 0.0, 2023-05-23 15:23:26.717
246.0, 27352.254373103904, 33604.12670423111, 21699.609959079025, -18502.75170835873, -4985.578952500696, 6505.631685928308, 30617.7771827909, 14340.40985589145, 0.004, -0.01, 0.978, 192.0, 0.0, 0.0, 0.0, 0.0, 0.0, 0.0, 0.0, 0.0, 0.0, 1.684848206717123E9, 0.0, 2023-05-23 15:23:26.717
247.0, 27366.80535874431, 33621.49400967288, 21718.877162799497, -18505.47862118228, -4968.122240081101, 6493.494688689076, 30597.370040103204, 14297.315692581618, 0.004, -0.01, 0.978, 192.0, 0.0, 0.0, 0.0, 0.0, 0.0, 0.0, 0.0, 0.0, 0.0, 1.684848206717127E9, 0.0, 2023-05-23 15:23:26.717
248.0, 27364.547832554323, 33624.84677134118, 21716.86550579852, -18470.14051319844, -4966.64702494705, 6500.3343224924, 30609.64114780917, 14307.664550264426, 0.004, -0.01, 0.978, 192.0, 0.0, 0.0, 0.0, 0.0, 0.0, 0.0, 0.0, 0.0, 0.0, 1.684848206717132E9, 0.0, 2023-05-23 15:23:26.717
249.0, 27368.213518644992, 33627.35016672017, 21711.09875572905, -18463.256175906205, -4978.426394274998, 6511.107863319858, 30620.325281658803, 14321.433224848894, 0.004, -0.01, 0.978, 192.0, 0.0, 0.0, 0.0, 0.0, 0.0, 0.0, 0.0, 0.0, 0.0, 1.684848206717137E9, 0.0, 2023-05-23 15:23:26.717
250.0, 27361.731512752955, 33621.1363817616, 21699.542903845657, -18486.27847269517, -4971.519705238307, 6518.8639186458495, 30635.815040566333, 14349.12703622902, 0.004, -0.01, 0.978, 192.0, 0.0, 0.0, 255.0, 160.0, 30.0, 144.0, 0.0, 0.0, 0.0, 1.684848206717141E9, 0.0, 2023-05-23 15:23:26.717
251.0, 27361.41858833058, 33619.52705616082, 21696.458363110825, -18488.781868074166, -4981.9579698989355, 6512.068988331436, 30635.859744055244, 14344.388466404494, 0.004, -0.01, 0.978, 192.0, 0.0, 0.0, 0.0, 0.0, 0.0, 0.0, 0.0, 0.0, 0.0, 1.684848206717145E9, 0.0, 2023-05-23 15:23:26.717
252.0, 27359.36222784069, 33614.85554156966, 21705.332005659584, -18481.40579240391, -4995.503127038852, 6503.396511482777, 30613.463296111026, 14304.445899062861, 0.004, -0.01, 0.978, 192.0, 0.0, 0.0, 0.0, 0.0, 0.0, 0.0, 0.0, 0.0, 0.0, 1.684848206717151E9, 0.0, 2023-05-23 15:23:26.717
253.0, 27357.574088284266, 33616.5319224038, 21717.133726731983, -18495.018004777194, -4964.367147012609, 6509.05150282997, 30616.279615912394, 14318.058111436143, 0.004, -0.01, 0.978, 192.0, 0.0, 0.0, 0.0, 0.0, 0.0, 0.0, 0.0, 0.0, 0.0, 1.684848206717156E9, 0.0, 2023-05-23 15:23:26.717
254.0, 27352.902573693107, 33613.961471791445, 21708.7741743057, -18489.18419947436, -4958.555693454229, 6514.840604643894, 30609.5740925758, 14325.992980717778, 0.004, -0.01, 0.978, 192.0, 0.0, 0.0, 0.0, 0.0, 0.0, 0.0, 0.0, 0.0, 0.0, 1.684848206717161E9, 0.0, 2023-05-23 15:23:26.717
255.0, 27349.996846913917, 33608.731163588905, 21701.085174213073, -18476.89074002394, -4963.406022001031, 6516.785206411506, 30619.811191536333, 14350.110512985053, 0.004, -0.01, 0.978, 192.0, 0.0, 0.0, 0.0, 0.0, 0.0, 0.0, 0.0, 0.0, 0.0, 1.684848206717165E9, 0.0, 2023-05-23 15:23:26.717
0.0, 27362.625582531167, 33614.78848633629, 21722.72166284581, -18490.502952397223, -4969.016309859313, 6508.448005729677, 30637.44671791157, 14350.579899618615, 0.004, -0.01, 0.978, 192.0, 0.0, 0.0, 0.0, 0.0, 0.0, 0.0, 0.0, 0.0, 0.0, 1.684848206776461E9, 0.0, 2023-05-23 15:23:26.776
1.0, 27366.09010292174, 33612.50860840185, 21719.100680244053, -18492.425202420378, -5006.746054499871, 6495.886325345794, 30616.413726379127, 14308.379806086996, 0.004, -0.01, 0.978, 192.0, 0.0, 0.0, 0.0, 0.0, 0.0, 0.0, 0.0, 0.0, 0.0, 1.684848206776472E9, 0.0, 2023-05-23 15:23:26.776
2.0, 27363.85492847621, 33608.35118393316, 21705.086136470574, -18461.22216716077, -4984.953103655947, 6505.944610350682, 30616.480781612492, 14317.476966080305, 0.004, -0.01, 0.978, 192.0, 0.0, 0.0, 0.0, 0.0, 0.0, 0.0, 0.0, 0.0, 0.0, 1.684848206776476E9, 0.0, 2023-05-23 15:23:26.776
3.0, 27357.439977817536, 33607.099486243664, 21704.72850855929, -18471.481617865757, -4964.8141819017155, 6511.510194720054, 30617.82188627981, 14324.74128302828, 0.004, -0.01, 0.978, 192.0, 0.0, 0.0, 0.0, 0.0, 0.0, 0.0, 0.0, 0.0, 0.0, 1.684848206776479E9, 0.0, 2023-05-23 15:23:26.776
4.0, 27353.327256837758, 33606.29482344328, 21706.874276027, -18515.827478865085, -4956.968719597902, 6516.852261644872, 30635.59152312178, 14348.948222273377, 0.004, -0.01, 0.978, 192.0, 0.0, 0.0, 255.0, 160.0, 30.0, 96.0, 0.0, 0.0, 0.0, 1.684848206776482E9, 0.0, 2023-05-23 15:23:26.776
5.0, 27362.40206508661, 33614.07323051372, 21721.91700004542, -18480.288205181147, -4964.277740034788, 6507.218659784635, 30636.619703366723, 14344.991963504788, 0.004, -0.01, 0.978, 192.0, 0.0, 0.0, 0.0, 0.0, 0.0, 0.0, 0.0, 0.0, 0.0, 1.684848206776485E9, 0.0, 2023-05-23 15:23:26.776
6.0, 27369.353457612215, 33618.96826254943, 21738.34553222007, -18462.250347405716, -4992.910324682036, 6496.065139301436, 30614.692642056067, 14310.279704365696, 0.004, -0.01, 0.978, 192.0, 0.0, 0.0, 0.0, 0.0, 0.0, 0.0, 0.0, 0.0, 0.0, 1.684848206776488E9, 0.0, 2023-05-23 15:23:26.776
7.0, 27369.867547734684, 33618.76709684933, 21724.28628495768, -18481.584606359556, -4993.625580504606, 6505.05054057247, 30613.73151704449, 14318.035759691687, 0.004, -0.01, 0.978, 192.0, 0.0, 0.0, 0.0, 0.0, 0.0, 0.0, 0.0, 0.0, 0.0, 1.684848206776492E9, 0.0, 2023-05-23 15:23:26.776
8.0, 27363.810224987297, 33612.620367124124, 21704.370880648003, -18495.934426299864, -4992.262124092833, 6516.3381715223995, 30613.239778666473, 14325.16596617293, 0.004, -0.01, 0.978, 192.0, 0.0, 0.0, 0.0, 0.0, 0.0, 0.0, 0.0, 0.0, 0.0, 1.684848206776496E9, 0.0, 2023-05-23 15:23:26.776
9.0, 27354.288381849336, 33606.697154843474, 21702.314520158117, -18493.229865220772, -4984.126089111101, 6522.887232647805, 30632.61874110922, 14349.663478095947, 0.004, -0.01, 0.978, 192.0, 0.0, 0.0, 0.0, 0.0, 0.0, 0.0, 0.0, 0.0, 0.0, 1.6848482067765E9, 0.0, 2023-05-23 15:23:26.776
10.0, 27360.79273948583, 33608.17236997752, 21707.63423533848, -18493.475734409778, -4990.675150236506, 6513.030113343015, 30635.569171377323, 14346.020143749733, 0.004, -0.01, 0.978, 192.0, 0.0, 0.0, 0.0, 0.0, 0.0, 0.0, 0.0, 0.0, 0.0, 1.684848206776504E9, 0.0, 2023-05-23 15:23:26.776
11.0, 27373.399123358624, 33619.281186971806, 21701.48750561327, -18467.927690497363, -5001.247525363866, 6504.424691727721, 30605.640185551667, 14304.31178859613, 0.004, -0.01, 0.978, 192.0, 0.0, 0.0, 0.0, 0.0, 0.0, 0.0, 0.0, 0.0, 0.0, 1.684848206776508E9, 0.0, 2023-05-23 15:23:26.776
12.0, 27361.396236586123, 33609.37936417811, 21690.512799085715, -18463.211472417293, -4995.033740405291, 6512.247802287078, 30599.515807570915, 14308.916247953923, 0.004, -0.01, 0.978, 192.0, 0.0, 0.0, 0.0, 0.0, 0.0, 0.0, 0.0, 0.0, 0.0, 1.684848206776512E9, 0.0, 2023-05-23 15:23:26.776
13.0, 27344.721835222466, 33595.18600644899, 21688.791714762654, -18475.348469656525, -4997.559487528741, 6518.998029112581, 30603.561473317324, 14315.487660823783, 0.004, -0.01, 0.978, 192.0, 0.0, 0.0, 0.0, 0.0, 0.0, 0.0, 0.0, 0.0, 0.0, 1.684848206776516E9, 0.0, 2023-05-23 15:23:26.776
14.0, 27341.681997976542, 33597.35412566115, 21697.978281733787, -18456.99768745872, -4985.936580411981, 6519.690933190695, 30625.846162539267, 14341.750960558767, 0.004, -0.014, 0.974, 192.0, 0.0, 32.0, 255.0, 144.0, 30.0, 112.0, 0.0, 0.0, 0.0, 1.68484820677652E9, 0.0, 2023-05-23 15:23:26.776
15.0, 27347.560506768288, 33603.85848329765, 21701.95689224683, -18490.07826925257, -4966.356452269131, 6512.292505775989, 30637.245552211472, 14342.577975103615, 0.004, -0.014, 0.974, 192.0, 0.0, 0.0, 0.0, 0.0, 0.0, 0.0, 0.0, 0.0, 0.0, 1.684848206836203E9, 0.0, 2023-05-23 15:23:26.836
16.0, 27358.915192951587, 33615.12376250312, 21718.810107566133, -18485.429106405867, -4990.742205469872, 6503.24004927159, 30610.781086776387, 14296.756898970236, 0.004, -0.014, 0.974, 192.0, 0.0, 0.0, 0.0, 0.0, 0.0, 0.0, 0.0, 0.0, 0.0, 1.684848206836211E9, 0.0, 2023-05-23 15:23:26.836
17.0, 27360.56922204128, 33614.31909970273, 21702.91801725841, -18460.059876449093, -4991.725682225905, 6517.634572700807, 30611.96572923252, 14305.965817685821, 0.004, -0.014, 0.974, 192.0, 0.0, 0.0, 0.0, 0.0, 0.0, 0.0, 0.0, 0.0, 0.0, 1.684848206836214E9, 0.0, 2023-05-23 15:23:26.836
18.0, 27357.663495262088, 33610.407544423055, 21694.066726454108, -18466.765399785687, -4990.138708369578, 6535.1806920982235, 30613.53035134439, 14320.405044603951, 0.004, -0.014, 0.974, 192.0, 0.0, 0.0, 0.0, 0.0, 0.0, 0.0, 0.0, 0.0, 0.0, 1.684848206836218E9, 0.0, 2023-05-23 15:23:26.836
19.0, 27356.925887695063, 33612.0839252572, 21703.409755636425, -18456.662411291887, -4962.288434778266, 6535.493616520598, 30621.308758414838, 14346.713047827847, 0.004, -0.014, 0.974, 192.0, 0.0, 0.0, 0.0, 0.0, 0.0, 0.0, 0.0, 0.0, 0.0, 1.684848206836221E9, 0.0, 2023-05-23 15:23:26.836
20.0, 27358.848137718218, 33612.30744270175, 21729.67305537141, -18467.815931775087, -4952.386611984564, 6517.232241300612, 30624.572113105314, 14348.12120772853, 0.004, -0.014, 0.974, 192.0, 0.0, 0.0, 0.0, 0.0, 0.0, 0.0, 0.0, 0.0, 0.0, 1.684848206836226E9, 0.0, 2023-05-23 15:23:26.836
21.0, 27368.884070978653, 33614.184989236, 21735.81978509662, -18472.867426021985, -4994.474946793908, 6503.150642293768, 30612.368060632714, 14309.989131687777, 0.004, -0.014, 0.974, 192.0, 0.0, 0.0, 0.0, 0.0, 0.0, 0.0, 0.0, 0.0, 0.0, 1.68484820683623E9, 0.0, 2023-05-23 15:23:26.836
22.0, 27365.061922676796, 33609.625233367115, 21715.412642408926, -18447.855823976497, -4993.379711315598, 6513.946534865682, 30610.222293165007, 14308.11158515353, 0.004, -0.014, 0.974, 192.0, 0.0, 0.0, 0.0, 0.0, 0.0, 0.0, 0.0, 0.0, 0.0, 1.684848206836257E9, 0.0, 2023-05-23 15:23:26.836
23.0, 27360.97155344147, 33612.218035723934, 21711.903418529444, -18465.290184651636, -4974.0901558506675, 6524.161282081757, 30606.802476263343, 14316.44878583536, 0.004, -0.014, 0.974, 192.0, 0.0, 0.0, 0.0, 0.0, 0.0, 0.0, 0.0, 0.0, 0.0, 1.684848206836261E9, 0.0, 2023-05-23 15:23:26.836
24.0, 27350.89091669213, 33603.344393175175, 21700.951063746343, -18474.387344644947, -4971.4526500049415, 6529.436293773209, 30633.401052165158, 14350.155216473964, 0.004, -0.014, 0.97, 192.0, 0.0, 32.0, 255.0, 144.0, 30.0, 80.0, 0.0, 0.0, 0.0, 1.684848206836265E9, 0.0, 2023-05-23 15:23:26.836
25.0, 27354.578954527256, 33601.802122807756, 21696.90539799993, -18493.967472787797, -4988.350568813154, 6512.091340075892, 30630.852953297253, 14340.320448913628, 0.004, -0.014, 0.97, 192.0, 0.0, 0.0, 0.0, 0.0, 0.0, 0.0, 0.0, 0.0, 0.0, 1.684848206836269E9, 0.0, 2023-05-23 15:23:26.836
26.0, 27366.000695943916, 33611.63689036809, 21698.24650266725, -18486.501990139725, -4997.268914850822, 6494.947552078671, 30604.813171006823, 14292.241846590263, 0.004, -0.014, 0.97, 192.0, 0.0, 0.0, 0.0, 0.0, 0.0, 0.0, 0.0, 0.0, 0.0, 1.684848206836274E9, 0.0, 2023-05-23 15:23:26.836
27.0, 27358.5575650403, 33607.255948454855, 21689.976357218788, -18472.97918474426, -4991.680978736995, 6509.163261552247, 30604.9249297291, 14308.223343875808, 0.004, -0.014, 0.97, 192.0, 0.0, 0.0, 0.0, 0.0, 0.0, 0.0, 0.0, 0.0, 0.0, 1.684848206836279E9, 0.0, 2023-05-23 15:23:26.836
28.0, 27352.589649270732, 33603.8808350421, 21689.417563607403, -18460.015172960186, -4992.820917704215, 6528.475168761632, 30600.789857004867, 14323.176660916408, 0.004, -0.014, 0.97, 192.0, 0.0, 0.0, 0.0, 0.0, 0.0, 0.0, 0.0, 0.0, 0.0, 1.684848206836283E9, 0.0, 2023-05-23 15:23:26.836
29.0, 27354.80247197181, 33605.89249204308, 21697.084211955575, -18466.743048041233, -4980.996844887358, 6529.0786658619245, 30610.781086776387, 14347.674172839425, 0.004, -0.014, 0.97, 192.0, 0.0, 0.0, 0.0, 0.0, 0.0, 0.0, 0.0, 0.0, 0.0, 1.684848206836287E9, 0.0, 2023-05-23 15:23:26.836
30.0, 27355.003637671907, 33608.373535677616, 21704.661453325924, -18474.968490000785, -4978.94048439747, 6519.176843068224, 30618.53714210238, 14345.21548094934, 0.004, -0.014, 0.97, 192.0, 0.0, 0.0, 0.0, 0.0, 0.0, 0.0, 0.0, 0.0, 0.0, 1.684848206896456E9, 0.0, 2023-05-23 15:23:26.896
31.0, 27359.630448774155, 33612.39684967957, 21725.87325881401, -18462.473864850268, -4977.599379730151, 6510.9961045975815, 30609.61879606471, 14311.754919499746, 0.004, -0.014, 0.97, 192.0, 0.0, 0.0, 0.0, 0.0, 0.0, 0.0, 0.0, 0.0, 0.0, 1.684848206896466E9, 0.0, 2023-05-23 15:23:26.896
32.0, 27363.31848660928, 33615.52609390332, 21725.87325881401, -18467.61476607499, -4964.724774923894, 6517.969848867638, 30612.815095521823, 14317.611076547037, 0.004, -0.014, 0.97, 192.0, 0.0, 0.0, 0.0, 0.0, 0.0, 0.0, 0.0, 0.0, 0.0, 1.68484820689647E9, 0.0, 2023-05-23 15:23:26.896
33.0, 27357.484681306447, 33611.301614201264, 21712.238694696272, -18479.684708080855, -4966.244693546855, 6521.322610535934, 30611.11636294322, 14324.69657953937, 0.004, -0.014, 0.97, 192.0, 0.0, 0.0, 0.0, 0.0, 0.0, 0.0, 0.0, 0.0, 0.0, 1.684848206896475E9, 0.0, 2023-05-23 15:23:26.896
34.0, 27350.533288780844, 33603.813779808734, 21688.47879034028, -18473.98501324475, -4941.948347323936, 6519.199194812679, 30626.337900917282, 14352.725667086324, 0.004, -0.012, 0.974, 192.0, 0.0, 32.0, 255.0, 160.0, 30.0, 112.0, 0.0, 0.0, 0.0, 1.68484820689648E9, 0.0, 2023-05-23 15:23:26.896
35.0, 27348.543983524323, 33597.7788088058, 21684.567235060604, -18468.061800964093, -4956.5440364532515, 6501.273095759523, 30622.895732271165, 14345.975440260821, 0.004, -0.012, 0.974, 192.0, 0.0, 0.0, 0.0, 0.0, 0.0, 0.0, 0.0, 0.0, 0.0, 1.684848206896484E9, 0.0, 2023-05-23 15:23:26.896
36.0, 27361.530347052856, 33608.41823916653, 21698.82764802309, -18476.33194641256, -4998.118281140123, 6485.805688596451, 30599.895787226655, 14296.086346636575, 0.004, -0.012, 0.974, 192.0, 0.0, 0.0, 0.0, 0.0, 0.0, 0.0, 0.0, 0.0, 0.0, 1.684848206896489E9, 0.0, 2023-05-23 15:23:26.896
37.0, 27363.586707542745, 33615.05670726975, 21724.35334019105, -18476.89074002394, -5008.556545800751, 6496.512174190542, 30610.959900732032, 14304.8258787186, 0.004, -0.012, 0.974, 192.0, 0.0, 0.0, 0.0, 0.0, 0.0, 0.0, 0.0, 0.0, 0.0, 1.684848206896493E9, 0.0, 2023-05-23 15:23:26.896
38.0, 27359.965724940983, 33616.17429449252, 21713.06570924112, -18476.823684790575, -5004.935563198992, 6502.167165537735, 30622.426345637603, 14320.06976843712, 0.004, -0.012, 0.974, 192.0, 0.0, 0.0, 0.0, 0.0, 0.0, 0.0, 0.0, 0.0, 0.0, 1.684848206896498E9, 0.0, 2023-05-23 15:23:26.896
39.0, 27347.26993409037, 33600.30455592925, 21672.162016887905, -18482.098696482026, -4983.075557121701, 6496.71333989064, 30628.930703274098, 14341.46038788085, 0.004, -0.012, 0.974, 192.0, 0.0, 0.0, 0.0, 0.0, 0.0, 0.0, 0.0, 0.0, 0.0, 1.684848206896502E9, 0.0, 2023-05-23 15:23:26.896
40.0, 27343.827765444254, 33595.74480006037, 21676.43120007887, -18497.09671701154, -4974.581894228684, 6483.436403684188, 30624.415650894127, 14336.45359712286, 0.004, -0.012, 0.974, 192.0, 0.0, 0.0, 0.0, 0.0, 0.0, 0.0, 0.0, 0.0, 0.0, 1.684848206896507E9, 0.0, 2023-05-23 15:23:26.896
41.0, 27351.69557949252, 33605.35605017615, 21712.551619118647, -18489.631234363467, -4993.983208415891, 6483.391700195277, 30611.92102574361, 14303.64123626247, 0.004, -0.012, 0.974, 192.0, 0.0, 0.0, 0.0, 0.0, 0.0, 0.0, 0.0, 0.0, 0.0, 1.684848206896512E9, 0.0, 2023-05-23 15:23:26.896
42.0, 27355.36126558319, 33608.55234963326, 21703.67797656989, -18472.018059732683, -4980.058071620235, 6500.513136448042, 30618.403031635647, 14316.605248046548, 0.004, -0.012, 0.974, 192.0, 0.0, 0.0, 0.0, 0.0, 0.0, 0.0, 0.0, 0.0, 0.0, 1.684848206896516E9, 0.0, 2023-05-23 15:23:26.896
43.0, 27358.669323762577, 33612.41920142403, 21695.877217754987, -18455.4554170913, -4978.404042530542, 6509.856165630361, 30616.39137463467, 14326.104739440054, 0.004, -0.012, 0.974, 192.0, 0.0, 0.0, 0.0, 0.0, 0.0, 0.0, 0.0, 0.0, 0.0, 1.684848206896533E9, 0.0, 2023-05-23 15:23:26.896
44.0, 27352.07555914826, 33603.0314687528, 21694.603168321035, -18452.013248445182, -4974.939522139969, 6509.5879446968975, 30620.235874680984, 14345.081370482609, 0.004, -0.012, 0.974, 192.0, 0.0, 0.0, 255.0, 160.0, 30.0, 112.0, 0.0, 0.0, 0.0, 1.684848206896538E9, 0.0, 2023-05-23 15:23:26.896
45.0, 27356.88118420615, 33606.65245135456, 21694.71492704331, -18473.493274866734, -4983.589647244174, 6498.166203280235, 30625.510886372434, 14344.343762915583, 0.004, -0.012, 0.974, 192.0, 0.0, 0.0, 0.0, 0.0, 0.0, 0.0, 0.0, 0.0, 0.0, 1.684848206956869E9, 0.0, 2023-05-23 15:23:26.956
46.0, 27369.688733779043, 33618.34241370468, 21713.222171452308, -18469.246443420227, -4992.84326944867, 6486.833868841394, 30603.360307617226, 14300.489640294272, 0.004, -0.012, 0.974, 192.0, 0.0, 0.0, 0.0, 0.0, 0.0, 0.0, 0.0, 0.0, 0.0, 1.68484820695689E9, 0.0, 2023-05-23 15:23:26.956
47.0, 27367.878242478164, 33619.348242205175, 21712.86454354102, -18468.46413236429, -4985.802469945249, 6494.008778811548, 30616.39137463467, 14313.07367242261, 0.004, -0.012, 0.974, 192.0, 0.0, 0.0, 0.0, 0.0, 0.0, 0.0, 0.0, 0.0, 0.0, 1.684848206956895E9, 0.0, 2023-05-23 15:23:26.956
48.0, 27357.171756884072, 33612.352146190664, 21709.645892339457, -18472.867426021985, -4967.161115069523, 6504.424691727721, 30627.857819540244, 14326.104739440054, 0.004, -0.012, 0.974, 192.0, 0.0, 0.0, 0.0, 0.0, 0.0, 0.0, 0.0, 0.0, 0.0, 1.6848482069569E9, 0.0, 2023-05-23 15:23:26.956
49.0, 27352.857870204196, 33616.353108448166, 21716.194953464863, -18468.620594575477, -4943.848245602638, 6505.609334183852, 30630.115345730228, 14345.416646649439, 0.004, -0.012, 0.974, 192.0, 0.0, 0.0, 0.0, 0.0, 0.0, 0.0, 0.0, 0.0, 0.0, 1.684848206956905E9, 0.0, 2023-05-23 15:23:26.956
50.0, 27352.03085565935, 33611.100448501165, 21731.617657139024, -18475.169655700884, -4971.676167449495, 6496.914505590738, 30633.91514228763, 14343.159120459453, 0.004, -0.012, 0.974, 192.0, 0.0, 0.0, 0.0, 0.0, 0.0, 0.0, 0.0, 0.0, 0.0, 1.68484820695691E9, 0.0, 2023-05-23 15:23:26.956
51.0, 27360.54687029682, 33608.17236997752, 21727.303770459148, -18481.450495892823, -4977.532324496785, 6483.659921128741, 30617.732479301987, 14302.523649039704, 0.004, -0.012, 0.974, 192.0, 0.0, 0.0, 0.0, 0.0, 0.0, 0.0, 0.0, 0.0, 0.0, 1.684848206956915E9, 0.0, 2023-05-23 15:23:26.956
52.0, 27361.105663908205, 33611.167503734534, 21704.303825414638, -18466.720696296776, -4962.735469667372, 6492.041825299481, 30613.48564785548, 14307.59749503106, 0.004, -0.012, 0.974, 192.0, 0.0, 0.0, 0.0, 0.0, 0.0, 0.0, 0.0, 0.0, 0.0, 1.68484820695692E9, 0.0, 2023-05-23 15:23:26.956
53.0, 27351.89674519262, 33604.30551818675, 21682.287357126163, -18485.451458150324, -4973.374900028098, 6503.083587060402, 30605.036688451375, 14311.553753799648, 0.004, -0.012, 0.974, 192.0, 0.0, 0.0, 0.0, 0.0, 0.0, 0.0, 0.0, 0.0, 0.0, 1.684848206956925E9, 0.0, 2023-05-23 15:23:26.956
54.0, 27334.663550217578, 33593.10729421464, 21669.85978720901, -18504.361033959514, -4980.147478598056, 6501.04957831497, 30615.050269967353, 14334.26312616624, 0.002, -0.016, 0.978, 192.0, 0.0, 16.0, 255.0, 128.0, 30.0, 144.0, 0.0, 0.0, 0.0, 1.68484820695693E9, 0.0, 2023-05-23 15:23:26.956
55.0, 27346.264105589882, 33602.31621293023, 21691.04924095264, -18483.551559871623, -4982.069728621213, 6486.006854296548, 30629.310682929838, 14336.475948867315, 0.002, -0.016, 0.978, 192.0, 0.0, 0.0, 0.0, 0.0, 0.0, 0.0, 0.0, 0.0, 0.0, 1.684848206956935E9, 0.0, 2023-05-23 15:23:26.956
56.0, 27360.636277274643, 33613.08975375769, 21705.980206248787, -18472.286280666147, -4994.586705516184, 6486.498592674565, 30623.029842737895, 14305.094099652064, 0.002, -0.016, 0.978, 192.0, 0.0, 0.0, 0.0, 0.0, 0.0, 0.0, 0.0, 0.0, 0.0, 1.68484820695694E9, 0.0, 2023-05-23 15:23:26.956
57.0, 27359.898669707618, 33615.2355212254, 21703.856790525533, -18481.5622546151, -4987.523554268308, 6499.663770158741, 30629.623607352212, 14311.285532866184, 0.002, -0.016, 0.978, 192.0, 0.0, 0.0, 0.0, 0.0, 0.0, 0.0, 0.0, 0.0, 0.0, 1.684848206956944E9, 0.0, 2023-05-23 15:23:26.956
58.0, 27349.32629458026, 33602.1821024635, 21699.05116546764, -18486.166713972892, -4984.41666178902, 6505.743444650584, 30624.30389217185, 14314.906515467945, 0.002, -0.016, 0.978, 192.0, 0.0, 0.0, 0.0, 0.0, 0.0, 0.0, 0.0, 0.0, 0.0, 1.684848206956949E9, 0.0, 2023-05-23 15:23:26.956
59.0, 27349.952143425005, 33600.55042511826, 21689.75283977423, -18496.269702466692, -4977.755841941338, 6510.258497030556, 30626.315549172825, 14335.380713389006, 0.002, -0.016, 0.978, 192.0, 0.0, 0.0, 0.0, 0.0, 0.0, 0.0, 0.0, 0.0, 0.0, 1.684848206956954E9, 0.0, 2023-05-23 15:23:26.956
60.0, 27354.713064993986, 33603.00911700835, 21694.133781687473, -18483.70802208281, -4977.934655896981, 6504.089415560891, 30639.748947590466, 14341.281573925207, 0.002, -0.016, 0.978, 192.0, 0.0, 0.0, 0.0, 0.0, 0.0, 0.0, 0.0, 0.0, 0.0, 1.684848207017111E9, 0.0, 2023-05-23 15:23:27.017
61.0, 27357.171756884072, 33606.71950658793, 21710.830534795587, -18459.27756539316, -4978.336987297176, 6497.160374779746, 30624.996796249965, 14308.11158515353, 0.002, -0.016, 0.978, 192.0, 0.0, 0.0, 0.0, 0.0, 0.0, 0.0, 0.0, 0.0, 0.0, 1.684848207017125E9, 0.0, 2023-05-23 15:23:27.017
62.0, 27355.115396394183, 33607.43476241049, 21707.142496960463, -18476.22018769028, -4972.346719783154, 6509.632648185808, 30623.8792090272, 14315.465309079327, 0.002, -0.016, 0.978, 192.0, 0.0, 0.0, 0.0, 0.0, 0.0, 0.0, 0.0, 0.0, 0.0, 1.68484820701713E9, 0.0, 2023-05-23 15:23:27.017
63.0, 27351.51676553688, 33607.21124496594, 21705.332005659584, -18475.21435918979, -4983.74610945536, 6519.020380857037, 30624.81798229432, 14325.389483617484, 0.002, -0.016, 0.978, 192.0, 0.0, 0.0, 0.0, 0.0, 0.0, 0.0, 0.0, 0.0, 0.0, 1.684848207017135E9, 0.0, 2023-05-23 15:23:27.017
64.0, 27347.6052102572, 33603.99259376438, 21691.719793286302, -18474.633213833957, -4952.990109084858, 6521.188500069202, 30629.91418003013, 14340.923946013922, -0.002, -0.014, 0.972, 192.0, 255.0, 240.0, 255.0, 144.0, 30.0, 96.0, 0.0, 0.0, 0.0, 1.68484820701716E9, 0.0, 2023-05-23 15:23:27.017
65.0, 27353.59547777122, 33604.394925164575, 21703.499162614247, -18487.61957736249, -4920.423617413476, 6509.744406908084, 30644.01813078143, 14347.69652458388, -0.002, -0.014, 0.972, 192.0, 0.0, 0.0, 0.0, 0.0, 0.0, 0.0, 0.0, 0.0, 0.0, 1.684848207017165E9, 0.0, 2023-05-23 15:23:27.017
66.0, 27366.492434321935, 33614.453210169464, 21720.732357589288, -18462.920899739373, -4993.916153182525, 6496.8474503573725, 30630.987063763987, 14306.837535719578, -0.002, -0.014, 0.972, 192.0, 0.0, 0.0, 0.0, 0.0, 0.0, 0.0, 0.0, 0.0, 0.0, 1.684848207017171E9, 0.0, 2023-05-23 15:23:27.017
67.0, 27372.817978002786, 33625.51732367484, 21723.168697734916, -18443.564289041078, -5010.858775479648, 6512.5830784539085, 30634.809212065844, 14315.085329423588, -0.002, -0.014, 0.972, 192.0, 0.0, 0.0, 0.0, 0.0, 0.0, 0.0, 0.0, 0.0, 0.0, 1.684848207017177E9, 0.0, 2023-05-23 15:23:27.017
68.0, 27359.049303418316, 33625.22675099692, 21703.119182958508, -18476.488408623747, -4996.5760107727065, 6521.590831469397, 30630.741194574977, 14322.573163816114, -0.002, -0.014, 0.972, 192.0, 0.0, 0.0, 0.0, 0.0, 0.0, 0.0, 0.0, 0.0, 0.0, 1.684848207017182E9, 0.0, 2023-05-23 15:23:27.017
69.0, 27349.348646324714, 33615.28022471431, 21689.57402581859, -18470.90047250992, -4976.995882629858, 6516.941668622693, 30643.325226703317, 14345.193129204885, -0.002, -0.014, 0.972, 192.0, 0.0, 0.0, 0.0, 0.0, 0.0, 0.0, 0.0, 0.0, 0.0, 1.684848207017187E9, 0.0, 2023-05-23 15:23:27.017
70.0, 27350.957971925494, 33603.92553853101, 21688.657604295924, -18482.255158693213, -4988.395272302065, 6501.586020181897, 30649.583715150802, 14345.796626305179, -0.002, -0.014, 0.972, 192.0, 0.0, 0.0, 0.0, 0.0, 0.0, 0.0, 0.0, 0.0, 0.0, 1.684848207017192E9, 0.0, 2023-05-23 15:23:27.017
71.0, 27363.765521498386, 33608.82057056673, 21707.321310916104, -18501.32119671359, -5000.241696863377, 6484.866915329328, 30620.97348224801, 14298.701500737847, -0.002, -0.014, 0.972, 192.0, 0.0, 0.0, 0.0, 0.0, 0.0, 0.0, 0.0, 0.0, 0.0, 1.684848207017198E9, 0.0, 2023-05-23 15:23:27.017
72.0, 27359.295172607326, 33615.10141075867, 21721.58172387859, -18474.879083022963, -4981.466231520919, 6489.672540387219, 30615.877284512197, 14299.059128649133, -0.002, -0.014, 0.972, 192.0, 0.0, 0.0, 0.0, 0.0, 0.0, 0.0, 0.0, 0.0, 0.0, 1.684848207017204E9, 0.0, 2023-05-23 15:23:27.017
73.0, 27353.483719048945, 33608.66410835554, 21703.275645169695, -18475.773152801175, -4979.164001842022, 6499.529659692009, 30615.16202868963, 14306.54696304166, -0.002, -0.014, 0.972, 192.0, 0.0, 0.0, 0.0, 0.0, 0.0, 0.0, 0.0, 0.0, 0.0, 1.684848207017209E9, 0.0, 2023-05-23 15:23:27.017
74.0, 27350.443881803025, 33603.92553853101, 21691.25040665274, -18474.02971673366, -4980.996844887358, 6506.995142340082, 30626.315549172825, 14330.038646464187, 0.002, -0.01, 0.976, 192.0, 0.0, 16.0, 255.0, 176.0, 30.0, 128.0, 0.0, 0.0, 0.0, 1.684848207017215E9, 0.0, 2023-05-23 15:23:27.017
75.0, 27351.047378903317, 33605.37840192061, 21706.29313067116, -18472.912129510896, -4987.70236822395, 6496.534525934998, 30639.614837123736, 14339.493434368782, 0.002, -0.01, 0.976, 192.0, 0.0, 0.0, 0.0, 0.0, 0.0, 0.0, 0.0, 0.0, 0.0, 1.684848207077336E9, 0.0, 2023-05-23 15:23:27.077
76.0, 27355.093044649726, 33608.95468103346, 21708.461249883327, -18473.00153648872, -5000.196993374467, 6488.823174097917, 30623.119249715717, 14302.277779850696, 0.002, -0.01, 0.976, 192.0, 0.0, 0.0, 0.0, 0.0, 0.0, 0.0, 0.0, 0.0, 0.0, 1.684848207077348E9, 0.0, 2023-05-23 15:23:27.077
77.0, 27356.300038850313, 33610.27343395632, 21701.621616080003, -18467.726524797265, -4985.489545522874, 6501.42955797071, 30625.06385148333, 14307.195163630864, 0.002, -0.01, 0.976, 192.0, 0.0, 0.0, 0.0, 0.0, 0.0, 0.0, 0.0, 0.0, 0.0, 1.684848207077353E9, 0.0, 2023-05-23 15:23:27.077
78.0, 27356.90353595061, 33608.82057056673, 21694.11142994302, -18466.743048041233, -4980.259237320332, 6515.555860466464, 30625.287368927882, 14320.963838215333, 0.002, -0.01, 0.976, 192.0, 0.0, 0.0, 0.0, 0.0, 0.0, 0.0, 0.0, 0.0, 0.0, 1.684848207077357E9, 0.0, 2023-05-23 15:23:27.077
79.0, 27355.204803372006, 33608.50764614435, 21694.33494738757, -18473.64973707792, -4960.8802748775815, 6521.233203558112, 30629.087165485285, 14338.286440168196, 0.002, -0.01, 0.976, 192.0, 0.0, 0.0, 0.0, 0.0, 0.0, 0.0, 0.0, 0.0, 0.0, 1.684848207077361E9, 0.0, 2023-05-23 15:23:27.077
80.0, 27352.969628926472, 33602.003288507854, 21695.430182865883, -18478.32125166908, -4950.710231150417, 6513.946534865682, 30648.26496222794, 14345.796626305179, 0.002, -0.01, 0.976, 192.0, 0.0, 0.0, 0.0, 0.0, 0.0, 0.0, 0.0, 0.0, 0.0, 1.684848207077366E9, 0.0, 2023-05-23 15:23:27.077
81.0, 27354.869527205174, 33603.45615189745, 21711.76930806271, -18466.966565485785, -4967.250522047344, 6499.61906666983, 30640.508906901945, 14305.36232058553, 0.002, -0.01, 0.976, 192.0, 0.0, 0.0, 0.0, 0.0, 0.0, 0.0, 0.0, 0.0, 0.0, 1.68484820707737E9, 0.0, 2023-05-23 15:23:27.077
82.0, 27355.674190005564, 33605.93719553199, 21717.379595920993, -18461.378629371957, -4990.60809500314, 6508.917392363238, 30625.041499738873, 14306.658721763937, 0.002, -0.01, 0.976, 192.0, 0.0, 0.0, 0.0, 0.0, 0.0, 0.0, 0.0, 0.0, 0.0, 1.684848207077375E9, 0.0, 2023-05-23 15:23:27.077
83.0, 27348.543983524323, 33604.64079435358, 21698.537075345168, -18467.815931775087, -4999.817013718726, 6521.836700658406, 30623.096897971263, 14318.751015514257, 0.002, -0.01, 0.976, 192.0, 0.0, 0.0, 0.0, 0.0, 0.0, 0.0, 0.0, 0.0, 0.0, 1.684848207077379E9, 0.0, 2023-05-23 15:23:27.077
84.0, 27346.84525094572, 33605.914843787534, 21703.655624825435, -18468.84411202003, -4987.5906095016735, 6526.999953627581, 30636.01620626643, 14341.572146603126, 0.006, -0.012, 0.974, 192.0, 0.0, 48.0, 255.0, 160.0, 30.0, 112.0, 0.0, 0.0, 0.0, 1.684848207077383E9, 0.0, 2023-05-23 15:23:27.077
85.0, 27347.560506768288, 33600.55042511826, 21688.925825229388, -18483.350394171524, -4983.991978644369, 6519.62387795733, 30647.125023260716, 14350.736361829802, 0.006, -0.012, 0.974, 192.0, 0.0, 0.0, 0.0, 0.0, 0.0, 0.0, 0.0, 0.0, 0.0, 1.684848207077387E9, 0.0, 2023-05-23 15:23:27.077
86.0, 27349.974495169463, 33603.36674491963, 21684.701345527334, -18474.4096963894, -4992.910324682036, 6509.43148248571, 30630.808249808342, 14313.900686967456, 0.006, -0.012, 0.974, 192.0, 0.0, 0.0, 0.0, 0.0, 0.0, 0.0, 0.0, 0.0, 0.0, 1.684848207077404E9, 0.0, 2023-05-23 15:23:27.077
87.0, 27347.672265490564, 33606.25011995436, 21691.18335141937, -18474.007364989207, -4981.019196631813, 6517.3887035118, 30625.19796195006, 14314.638294534481, 0.006, -0.012, 0.974, 192.0, 0.0, 0.0, 0.0, 0.0, 0.0, 0.0, 0.0, 0.0, 0.0, 1.684848207077408E9, 0.0, 2023-05-23 15:23:27.077
88.0, 27349.013370157885, 33611.391021179086, 21693.373822375994, -18462.07153345007, -4961.953158611436, 6526.105883849369, 30625.91321777263, 14324.07073069462, 0.006, -0.012, 0.974, 192.0, 0.0, 0.0, 0.0, 0.0, 0.0, 0.0, 0.0, 0.0, 0.0, 1.684848207077413E9, 0.0, 2023-05-23 15:23:27.077
89.0, 27341.12320436516, 33599.79046580678, 21684.455476338324, -18475.102600467515, -4977.599379730151, 6527.871671661338, 30643.369930192224, 14352.569204875137, 0.006, -0.012, 0.974, 192.0, 0.0, 0.0, 0.0, 0.0, 0.0, 0.0, 0.0, 0.0, 0.0, 1.684848207077417E9, 0.0, 2023-05-23 15:23:27.077
90.0, 27340.631465987142, 33590.11216045763, 21679.560444302613, -18482.970414515785, -4991.211592103433, 6517.791034911995, 30651.64007564069, 14356.950146788377, 0.006, -0.012, 0.974, 192.0, 0.0, 0.0, 0.0, 0.0, 0.0, 0.0, 0.0, 0.0, 0.0, 1.684848207136326E9, 0.0, 2023-05-23 15:23:27.136
91.0, 27357.84230921773, 33605.46780889843, 21712.39515690746, -18455.52247232467, -4992.239772348377, 6501.161337037246, 30628.17074396262, 14313.207782889342, 0.006, -0.012, 0.974, 192.0, 0.0, 0.0, 0.0, 0.0, 0.0, 0.0, 0.0, 0.0, 0.0, 1.684848207136335E9, 0.0, 2023-05-23 15:23:27.136
92.0, 27358.714027251488, 33611.234558967895, 21713.691558085866, -18440.904431450897, -4971.519705238307, 6510.973752853126, 30625.644996839168, 14313.78892824518, 0.006, -0.012, 0.974, 192.0, 0.0, 0.0, 0.0, 0.0, 0.0, 0.0, 0.0, 0.0, 0.0, 1.68484820713634E9, 0.0, 2023-05-23 15:23:27.136
93.0, 27352.679056248555, 33608.574701377715, 21707.567180105114, -18446.715885009275, -4970.55858022673, 6523.758950681562, 30626.472011384012, 14324.227192905808, 0.006, -0.012, 0.974, 192.0, 0.0, 0.0, 0.0, 0.0, 0.0, 0.0, 0.0, 0.0, 0.0, 1.684848207136345E9, 0.0, 2023-05-23 15:23:27.136
94.0, 27339.044492130815, 33596.0800762272, 21699.7217178013, -18484.579740116566, -4960.433239988475, 6517.679276189719, 30626.427307895105, 14339.962821002344, 0.006, -0.016, 0.974, 192.0, 0.0, 48.0, 255.0, 128.0, 30.0, 112.0, 0.0, 0.0, 0.0, 1.68484820713635E9, 0.0, 2023-05-23 15:23:27.136
95.0, 27342.061977632282, 33596.68357332749, 21701.934540502374, -18490.257083208213, -4931.487730918852, 6499.686121903196, 30627.231970695495, 14337.951164001366, 0.006, -0.016, 0.974, 192.0, 0.0, 0.0, 0.0, 0.0, 0.0, 0.0, 0.0, 0.0, 0.0, 1.684848207136355E9, 0.0, 2023-05-23 15:23:27.136
96.0, 27345.481794533946, 33601.109218729645, 21687.405906606426, -18479.863522036496, -4980.236885575877, 6487.347958963866, 30615.474953112003, 14304.177678129397, 0.006, -0.016, 0.974, 192.0, 0.0, 0.0, 0.0, 0.0, 0.0, 0.0, 0.0, 0.0, 0.0, 1.68484820713636E9, 0.0, 2023-05-23 15:23:27.136
97.0, 27346.12999512315, 33606.31717518773, 21687.33885137306, -18477.427181890867, -4982.650873977051, 6499.574363180919, 30621.241703181473, 14316.314675368629, 0.006, -0.016, 0.974, 192.0, 0.0, 0.0, 0.0, 0.0, 0.0, 0.0, 0.0, 0.0, 0.0, 1.684848207136365E9, 0.0, 2023-05-23 15:23:27.136
98.0, 27347.538155023834, 33604.864311798134, 21696.90539799993, -18462.607975316998, -4989.624618247106, 6518.171014567735, 30629.713014330035, 14329.010466219243, 0.006, -0.016, 0.974, 192.0, 0.0, 0.0, 0.0, 0.0, 0.0, 0.0, 0.0, 0.0, 0.0, 1.684848207136371E9, 0.0, 2023-05-23 15:23:27.136
99.0, 27341.79375669882, 33598.024677994814, 21682.846150737543, -18463.07736195056, -4992.731510726394, 6525.502386749075, 30646.45447092706, 14351.69748684138, 0.006, -0.016, 0.974, 192.0, 0.0, 0.0, 0.0, 0.0, 0.0, 0.0, 0.0, 0.0, 0.0, 1.684848207136376E9, 0.0, 2023-05-23 15:23:27.136
100.0, 27350.84621320322, 33607.255948454855, 21707.075441727095, -18449.286335621637, -4990.518688025319, 6511.867822631339, 30650.053101784364, 14356.50311189927, 0.006, -0.016, 0.974, 192.0, 0.0, 0.0, 0.0, 0.0, 0.0, 0.0, 0.0, 0.0, 0.0, 1.684848207136381E9, 0.0, 2023-05-23 15:23:27.136
101.0, 27359.071655162774, 33611.79335257928, 21711.322273173606, -18449.37574259946, -4995.994865416868, 6495.506345690053, 30621.95695900404, 14315.085329423588, 0.006, -0.016, 0.974, 192.0, 0.0, 0.0, 0.0, 0.0, 0.0, 0.0, 0.0, 0.0, 0.0, 1.684848207136386E9, 0.0, 2023-05-23 15:23:27.136
102.0, 27362.737341253443, 33616.062535770245, 21696.927749744387, -18459.27756539316, -4984.148440855556, 6507.553935951464, 30618.939473502574, 14314.235963134286, 0.006, -0.016, 0.974, 192.0, 0.0, 0.0, 0.0, 0.0, 0.0, 0.0, 0.0, 0.0, 0.0, 1.684848207136391E9, 0.0, 2023-05-23 15:23:27.136
103.0, 27355.338913838736, 33608.105314744156, 21686.62359555049, -18482.05399299312, -4981.063900120724, 6518.171014567735, 30621.264054925927, 14321.679094037903, 0.006, -0.016, 0.974, 192.0, 0.0, 0.0, 0.0, 0.0, 0.0, 0.0, 0.0, 0.0, 0.0, 1.684848207136395E9, 0.0, 2023-05-23 15:23:27.136
104.0, 27345.03475964484, 33595.990669249375, 21690.356336874527, -18487.776039573677, -4965.261216790822, 6517.858090145361, 30628.59542710727, 14336.855928523057, 0.004, -0.014, 0.974, 192.0, 0.0, 32.0, 255.0, 144.0, 30.0, 112.0, 0.0, 0.0, 0.0, 1.684848207136399E9, 0.0, 2023-05-23 15:23:27.136
105.0, 27348.78985271333, 33597.08590472769, 21700.68284281288, -18474.05206847812, -4976.034757618279, 6509.207965041157, 30643.414633681135, 14345.729571071814, 0.004, -0.014, 0.974, 192.0, 0.0, 0.0, 0.0, 0.0, 0.0, 0.0, 0.0, 0.0, 0.0, 1.684848207196472E9, 0.0, 2023-05-23 15:23:27.196
106.0, 27368.012352944894, 33615.2355212254, 21714.29505518616, -18434.064797647574, -4995.592534016673, 6497.629761413308, 30629.467145141025, 14304.714119996324, 0.004, -0.014, 0.974, 192.0, 0.0, 0.0, 0.0, 0.0, 0.0, 0.0, 0.0, 0.0, 0.0, 1.684848207196483E9, 0.0, 2023-05-23 15:23:27.196
107.0, 27361.865623219684, 33614.8331898252, 21709.48943012827, -18457.265908392183, -4976.660606463028, 6506.1234243063245, 30635.010377765942, 14310.88320146599, 0.004, -0.014, 0.974, 192.0, 0.0, 0.0, 0.0, 0.0, 0.0, 0.0, 0.0, 0.0, 0.0, 1.68484820719651E9, 0.0, 2023-05-23 15:23:27.196
108.0, 27354.154271382606, 33611.726297345915, 21716.373767420504, -18483.350394171524, -4975.252446562344, 6513.700665676673, 30632.574037620314, 14323.936620227889, 0.004, -0.014, 0.974, 192.0, 0.0, 0.0, 0.0, 0.0, 0.0, 0.0, 0.0, 0.0, 0.0, 1.684848207196514E9, 0.0, 2023-05-23 15:23:27.196
109.0, 27350.242716102926, 33608.64175661108, 21711.411680151425, -18475.41552488989, -4969.999786615346, 6517.254593045068, 30634.71980508802, 14343.673210581925, 0.004, -0.014, 0.974, 192.0, 0.0, 0.0, 0.0, 0.0, 0.0, 0.0, 0.0, 0.0, 0.0, 1.684848207196518E9, 0.0, 2023-05-23 15:23:27.196
110.0, 27347.82872770175, 33604.37257342012, 21701.465153868816, -18460.484559593744, -4955.851132375137, 6505.721092906129, 30636.77616557791, 14343.427341392917, 0.004, -0.014, 0.974, 192.0, 0.0, 0.0, 0.0, 0.0, 0.0, 0.0, 0.0, 0.0, 0.0, 1.684848207196523E9, 0.0, 2023-05-23 15:23:27.196
111.0, 27355.383617327647, 33606.25011995436, 21711.858715040533, -18461.356277627503, -4960.522646966297, 6494.947552078671, 30631.277636441904, 14304.35649208504, 0.004, -0.014, 0.974, 192.0, 0.0, 0.0, 0.0, 0.0, 0.0, 0.0, 0.0, 0.0, 0.0, 1.684848207196527E9, 0.0, 2023-05-23 15:23:27.196
112.0, 27354.869527205174, 33606.965375776934, 21698.090040456063, -18472.84507427753, -4964.590664457162, 6505.609334183852, 30644.64397962618, 14312.067843922121, 0.004, -0.014, 0.974, 192.0, 0.0, 0.0, 0.0, 0.0, 0.0, 0.0, 0.0, 0.0, 0.0, 1.684848207196532E9, 0.0, 2023-05-23 15:23:27.196
113.0, 27354.310733593793, 33609.289957200286, 21693.351470631536, -18467.748876541722, -4971.787926171771, 6512.71718892064, 30633.31164518734, 14314.347721856562, 0.004, -0.014, 0.974, 192.0, 0.0, 0.0, 0.0, 0.0, 0.0, 0.0, 0.0, 0.0, 0.0, 1.684848207196536E9, 0.0, 2023-05-23 15:23:27.196
114.0, 27356.098873150215, 33608.64175661108, 21699.453496867838, -18469.045277720128, -4962.355490011631, 6515.555860466464, 30631.724671331012, 14330.418626119928, 0.004, -0.014, 0.974, 192.0, 0.0, 0.0, 0.0, 0.0, 0.0, 0.0, 0.0, 0.0, 0.0, 1.684848207196541E9, 0.0, 2023-05-23 15:23:27.196
115.0, 27355.741245238933, 33603.70202108646, 21698.82764802309, -18470.207568431804, -4949.4361817164645, 6510.794938897484, 30641.69354935808, 14349.194091462386, 0.004, -0.014, 0.974, 192.0, 0.0, 0.0, 255.0, 128.0, 30.0, 144.0, 0.0, 0.0, 0.0, 1.684848207196546E9, 0.0, 2023-05-23 15:23:27.196
116.0, 27362.64793427562, 33611.12280024562, 21712.52926737419, -18445.307725108592, -4948.989146827358, 6503.798842882972, 30622.247531681962, 14313.051320678154, 0.004, -0.014, 0.974, 192.0, 0.0, 0.0, 0.0, 0.0, 0.0, 0.0, 0.0, 0.0, 0.0, 1.684848207196551E9, 0.0, 2023-05-23 15:23:27.196
117.0, 27369.264050634392, 33621.292843972784, 21722.766366334723, -18442.491405307224, -4950.039678816757, 6516.539337222498, 30638.229028967504, 14323.511937083238, 0.004, -0.014, 0.974, 192.0, 0.0, 0.0, 0.0, 0.0, 0.0, 0.0, 0.0, 0.0, 0.0, 1.684848207196556E9, 0.0, 2023-05-23 15:23:27.196
118.0, 27361.709161008497, 33613.38032643561, 21726.186183236383, -18443.430178574345, -4978.135821597079, 6531.67146821874, 30636.709110344545, 14333.749036043768, 0.004, -0.014, 0.974, 192.0, 0.0, 0.0, 0.0, 0.0, 0.0, 0.0, 0.0, 0.0, 0.0, 1.684848207196561E9, 0.0, 2023-05-23 15:23:27.196
119.0, 27356.389445828136, 33610.74282058988, 21711.34462491806, -18454.69545777982, -4973.12903083909, 6534.398381042288, 30639.83835456829, 14349.909347284956, 0.004, -0.014, 0.974, 192.0, 0.0, 0.0, 0.0, 0.0, 0.0, 0.0, 0.0, 0.0, 0.0, 1.684848207196565E9, 0.0, 2023-05-23 15:23:27.196
120.0, 27349.683922491542, 33601.3327361742, 21680.633328036467, -18479.461190636302, -4965.037699346269, 6525.211814071156, 30641.425328424615, 14353.597385120082, 0.004, -0.014, 0.974, 192.0, 0.0, 0.0, 0.0, 0.0, 0.0, 0.0, 0.0, 0.0, 0.0, 1.684848207256838E9, 0.0, 2023-05-23 15:23:27.256
121.0, 27352.32142833727, 33597.532939616794, 21679.403982091426, -18454.51664382418, -4981.577990243196, 6508.448005729677, 30617.665424068622, 14305.854058963545, 0.004, -0.014, 0.974, 192.0, 0.0, 0.0, 0.0, 0.0, 0.0, 0.0, 0.0, 0.0, 0.0, 1.684848207256846E9, 0.0, 2023-05-23 15:23:27.256
122.0, 27356.03181791685, 33605.1325327316, 21689.305804885127, -18467.927690497363, -4976.995882629858, 6518.975677368126, 30623.722746816013, 14306.457556063839, 0.004, -0.014, 0.974, 192.0, 0.0, 0.0, 0.0, 0.0, 0.0, 0.0, 0.0, 0.0, 0.0, 1.684848207256851E9, 0.0, 2023-05-23 15:23:27.256
123.0, 27361.642105775132, 33609.289957200286, 21691.831552008578, -18470.676955065366, -4957.907492865025, 6534.95717465367, 30639.83835456829, 14327.334085385095, 0.004, -0.014, 0.974, 192.0, 0.0, 0.0, 0.0, 0.0, 0.0, 0.0, 0.0, 0.0, 0.0, 1.684848207256854E9, 0.0, 2023-05-23 15:23:27.256
124.0, 27352.07555914826, 33602.24915769687, 21693.10560144253, -18468.28531840865, -4959.025080087791, 6539.695744478196, 30640.39714817967, 14349.104684484564, 0.004, -0.014, 0.974, 192.0, 0.0, 0.0, 0.0, 0.0, 0.0, 0.0, 0.0, 0.0, 0.0, 1.684848207256859E9, 0.0, 2023-05-23 15:23:27.256
125.0, 27358.356399340202, 33609.22290196692, 21715.233828453285, -18460.66337354939, -4954.733545152372, 6522.082569847414, 30642.654674369656, 14348.724704828825, 0.004, -0.018000000000000002, 0.96, 192.0, 0.0, 32.0, 255.0, 112.0, 30.0, 0.0, 0.0, 0.0, 0.0, 1.684848207256864E9, 0.0, 2023-05-23 15:23:27.256
126.0, 27359.004599929405, 33609.625233367115, 21721.559372134136, -18448.92870771035, -4966.803487158238, 6504.871726616827, 30617.844238024267, 14309.407986331938, 0.004, -0.018000000000000002, 0.96, 192.0, 0.0, 0.0, 0.0, 0.0, 0.0, 0.0, 0.0, 0.0, 0.0, 1.684848207256868E9, 0.0, 2023-05-23 15:23:27.256
127.0, 27360.233945874446, 33615.66020437005, 21716.86550579852, -18448.146396654414, -4964.903588879537, 6506.726921406618, 30613.798572277854, 14313.45365207835, 0.004, -0.018000000000000002, 0.96, 192.0, 0.0, 0.0, 0.0, 0.0, 0.0, 0.0, 0.0, 0.0, 0.0, 1.684848207256872E9, 0.0, 2023-05-23 15:23:27.256
128.0, 27367.386504100145, 33625.56202716375, 21714.92090403091, -18453.309649623592, -4984.237847833378, 6514.997066855081, 30613.73151704449, 14318.773367258713, 0.004, -0.018000000000000002, 0.96, 192.0, 0.0, 0.0, 0.0, 0.0, 0.0, 0.0, 0.0, 0.0, 0.0, 1.68484820725689E9, 0.0, 2023-05-23 15:23:27.256
129.0, 27365.218384887983, 33618.40946893805, 21702.225113180295, -18443.497233807713, -4974.872466906603, 6521.702590191673, 30629.690662585577, 14335.581879089104, 0.004, -0.018000000000000002, 0.96, 192.0, 0.0, 0.0, 0.0, 0.0, 0.0, 0.0, 0.0, 0.0, 0.0, 1.684848207256895E9, 0.0, 2023-05-23 15:23:27.256
130.0, 27357.730550495453, 33601.7797710633, 21687.003575206232, -18443.564289041078, -4969.373937770598, 6523.155453581268, 30650.12015701773, 14348.8364635511, 0.004, -0.018000000000000002, 0.96, 192.0, 0.0, 0.0, 0.0, 0.0, 0.0, 0.0, 0.0, 0.0, 0.0, 1.6848482072569E9, 0.0, 2023-05-23 15:23:27.256
131.0, 27354.243678360424, 33600.23750069589, 21688.076458940086, -18472.241577177236, -4980.303940809244, 6517.545165722986, 30630.003587007952, 14310.346759599062, 0.004, -0.018000000000000002, 0.96, 192.0, 0.0, 0.0, 0.0, 0.0, 0.0, 0.0, 0.0, 0.0, 0.0, 1.684848207256905E9, 0.0, 2023-05-23 15:23:27.256
132.0, 27357.954067940005, 33614.54261714729, 21705.689633570866, -18459.4563793488, -4967.831667403182, 6523.758950681562, 30626.829639295298, 14312.961913700334, 0.004, -0.018000000000000002, 0.96, 192.0, 0.0, 0.0, 0.0, 0.0, 0.0, 0.0, 0.0, 0.0, 0.0, 1.684848207256909E9, 0.0, 2023-05-23 15:23:27.256
133.0, 27351.248544603415, 33611.70394560146, 21703.38740389197, -18453.242594390227, -4954.018289329802, 6525.882366404816, 30620.414688636625, 14316.806413746646, 0.004, -0.018000000000000002, 0.96, 192.0, 0.0, 0.0, 0.0, 0.0, 0.0, 0.0, 0.0, 0.0, 0.0, 1.684848207256914E9, 0.0, 2023-05-23 15:23:27.256
134.0, 27343.55954451079, 33597.48823612789, 21695.899569499445, -18462.74208578373, -4935.913376321003, 6526.48586350511, 30631.165877719628, 14335.917155255933, 0.004, -0.018000000000000002, 0.96, 192.0, 0.0, 0.0, 0.0, 0.0, 0.0, 0.0, 0.0, 0.0, 0.0, 1.684848207256919E9, 0.0, 2023-05-23 15:23:27.256
135.0, 27346.84525094572, 33596.84003553868, 21704.59439809256, -18461.780960772154, -4959.494466721352, 6521.546127980487, 30644.465165670535, 14348.814111806645, -0.002, -0.012, 0.966, 192.0, 255.0, 240.0, 255.0, 160.0, 30.0, 48.0, 0.0, 0.0, 0.0, 1.684848207317136E9, 0.0, 2023-05-23 15:23:27.317
136.0, 27354.13191963815, 33605.62427110961, 21709.31061617263, -18458.450550848313, -4971.072670349201, 6504.961133594648, 30630.6294358527, 14305.138803140975, -0.002, -0.012, 0.966, 192.0, 0.0, 0.0, 0.0, 0.0, 0.0, 0.0, 0.0, 0.0, 0.0, 1.684848207317147E9, 0.0, 2023-05-23 15:23:27.317
137.0, 27350.46623354748, 33610.49695140087, 21716.574933120603, -18450.515681566678, -4936.896853077037, 6511.711360420151, 30642.29704645837, 14306.50225955275, -0.002, -0.012, 0.966, 192.0, 0.0, 0.0, 0.0, 0.0, 0.0, 0.0, 0.0, 0.0, 0.0, 1.684848207317152E9, 0.0, 2023-05-23 15:23:27.317
138.0, 27350.22036435847, 33610.58635837869, 21714.786793564177, -18445.754759997697, -4945.1669985255, 6522.261383803057, 30643.816965081332, 14312.716044511324, -0.002, -0.012, 0.966, 192.0, 0.0, 0.0, 0.0, 0.0, 0.0, 0.0, 0.0, 0.0, 0.0, 1.684848207317157E9, 0.0, 2023-05-23 15:23:27.317
139.0, 27352.522594037368, 33607.121837988125, 21697.039508466663, -18445.866518719973, -4952.945405595948, 6524.764779182051, 30646.38741569369, 14330.418626119928, -0.002, -0.012, 0.966, 192.0, 0.0, 0.0, 0.0, 0.0, 0.0, 0.0, 0.0, 0.0, 0.0, 1.684848207317163E9, 0.0, 2023-05-23 15:23:27.317
140.0, 27361.61975403068, 33611.41337292354, 21711.992825507263, -18449.30868736609, -4917.361428423099, 6515.019418599537, 30651.841241340786, 14339.895765768977, -0.002, -0.012, 0.966, 192.0, 0.0, 0.0, 0.0, 0.0, 0.0, 0.0, 0.0, 0.0, 0.0, 1.684848207317168E9, 0.0, 2023-05-23 15:23:27.317
141.0, 27362.84909997572, 33616.57662589272, 21742.16768052193, -18440.010361672685, -4935.511044920808, 6501.586020181897, 30627.05315673985, 14298.120355382009, -0.002, -0.012, 0.966, 192.0, 0.0, 0.0, 0.0, 0.0, 0.0, 0.0, 0.0, 0.0, 0.0, 1.684848207317173E9, 0.0, 2023-05-23 15:23:27.317
142.0, 27364.212556387494, 33623.93034981851, 21739.619581654024, -18432.343713324513, -4961.237902788866, 6508.783281896506, 30618.06775546882, 14297.315692581618, -0.002, -0.012, 0.966, 192.0, 0.0, 0.0, 0.0, 0.0, 0.0, 0.0, 0.0, 0.0, 0.0, 1.684848207317178E9, 0.0, 2023-05-23 15:23:27.317
143.0, 27358.579916784754, 33608.999384522365, 21686.4671333393, -18441.642039017923, -4965.88706563557, 6525.837662915906, 30619.49826711396, 14313.11837591152, -0.002, -0.012, 0.966, 192.0, 0.0, 0.0, 0.0, 0.0, 0.0, 0.0, 0.0, 0.0, 0.0, 1.684848207317184E9, 0.0, 2023-05-23 15:23:27.317
144.0, 27348.119300379672, 33595.18600644899, 21662.28254583866, -18447.252326876205, -4965.082402835179, 6526.798787927483, 30626.561418361835, 14329.457501108349, -0.002, -0.012, 0.966, 192.0, 0.0, 0.0, 0.0, 0.0, 0.0, 0.0, 0.0, 0.0, 0.0, 1.684848207317189E9, 0.0, 2023-05-23 15:23:27.317
145.0, 27354.22132661597, 33602.96441351943, 21678.755781502223, -18452.192062400827, -4967.943426125458, 6515.578212210919, 30637.513773144936, 14340.320448913628, 0.002, -0.014, 0.97, 192.0, 0.0, 16.0, 255.0, 144.0, 30.0, 80.0, 0.0, 0.0, 0.0, 1.684848207317194E9, 0.0, 2023-05-23 15:23:27.317
146.0, 27373.153254169614, 33617.7836200933, 21714.49622088626, -18452.79555950112, -4968.189295314467, 6507.330418506911, 30624.102726471752, 14307.083404908588, 0.002, -0.014, 0.97, 192.0, 0.0, 0.0, 0.0, 0.0, 0.0, 0.0, 0.0, 0.0, 0.0, 1.684848207317199E9, 0.0, 2023-05-23 15:23:27.317
147.0, 27377.17656817157, 33623.30450097376, 21718.318369188117, -18453.64492579042, -4949.994975327847, 6521.948459380682, 30620.168819447616, 14306.479907808294, 0.002, -0.014, 0.97, 192.0, 0.0, 0.0, 0.0, 0.0, 0.0, 0.0, 0.0, 0.0, 0.0, 1.684848207317204E9, 0.0, 2023-05-23 15:23:27.317
148.0, 27364.50312906541, 33617.20247473747, 21710.875238284498, -18456.483597336246, -4948.720925893895, 6532.319668807944, 30615.72082230101, 14313.140727655975, 0.002, -0.014, 0.97, 192.0, 0.0, 0.0, 0.0, 0.0, 0.0, 0.0, 0.0, 0.0, 0.0, 1.684848207317209E9, 0.0, 2023-05-23 15:23:27.317
149.0, 27342.50901252139, 33602.852654797156, 21705.801392293142, -18470.542844598633, -4944.608204914118, 6531.425599029732, 30619.4759153695, 14327.714065040836, 0.002, -0.014, 0.97, 192.0, 0.0, 0.0, 0.0, 0.0, 0.0, 0.0, 0.0, 0.0, 0.0, 1.684848207317214E9, 0.0, 2023-05-23 15:23:27.317
150.0, 27344.31950382227, 33599.94692801797, 21688.5681973181, -18469.17938818686, -4937.299184477232, 6518.059255845458, 30637.87140105622, 14335.201899433363, 0.002, -0.014, 0.97, 192.0, 0.0, 0.0, 0.0, 0.0, 0.0, 0.0, 0.0, 0.0, 0.0, 1.684848207377582E9, 0.0, 2023-05-23 15:23:27.377
151.0, 27352.94727718202, 33599.54459661777, 21683.851979238032, -18459.322268882068, -4971.497353493852, 6503.083587060402, 30618.604197335746, 14289.470230277806, 0.002, -0.014, 0.97, 192.0, 0.0, 0.0, 0.0, 0.0, 0.0, 0.0, 0.0, 0.0, 0.0, 1.684848207377592E9, 0.0, 2023-05-23 15:23:27.377
152.0, 27361.79856798632, 33609.40171592256, 21702.940369002863, -18445.397132086415, -4962.2213795449, 6514.751197666073, 30613.664461811124, 14291.548942512149, 0.002, -0.014, 0.97, 192.0, 0.0, 0.0, 0.0, 0.0, 0.0, 0.0, 0.0, 0.0, 0.0, 1.684848207377597E9, 0.0, 2023-05-23 15:23:27.377
153.0, 27363.22907963146, 33619.50470441636, 21715.524401131202, -18438.89277444992, -4951.939577095459, 6530.866805418349, 30618.49243861347, 14307.977474686799, 0.002, -0.014, 0.97, 192.0, 0.0, 0.0, 0.0, 0.0, 0.0, 0.0, 0.0, 0.0, 0.0, 1.684848207377601E9, 0.0, 2023-05-23 15:23:27.377
154.0, 27361.75386449741, 33618.789448593794, 21716.30671218714, -18428.633323744933, -4947.133952037568, 6539.338116566911, 30640.508906901945, 14335.492472111282, 0.002, -0.014, 0.97, 192.0, 0.0, 0.0, 0.0, 0.0, 0.0, 0.0, 0.0, 0.0, 0.0, 1.684848207377606E9, 0.0, 2023-05-23 15:23:27.377
155.0, 27362.089140664237, 33614.43085842501, 21706.851924282542, -18415.40109102739, -4909.627724841563, 6532.587889741408, 30646.901505816164, 14354.402047920472, 0.004, -0.01, 0.97, 192.0, 0.0, 32.0, 255.0, 176.0, 30.0, 80.0, 0.0, 0.0, 0.0, 1.68484820737761E9, 0.0, 2023-05-23 15:23:27.377
156.0, 27365.12897791016, 33612.575663635216, 21713.557447619136, -18467.994745730728, -4899.055349714202, 6515.757026166561, 30618.04540372436, 14309.855021221045, 0.004, -0.01, 0.97, 192.0, 0.0, 0.0, 0.0, 0.0, 0.0, 0.0, 0.0, 0.0, 0.0, 1.684848207377614E9, 0.0, 2023-05-23 15:23:27.377
157.0, 27369.576975056767, 33617.42599218202, 21713.713909830323, -18446.157091397894, -4933.141760008545, 6517.835738400905, 30620.414688636625, 14305.854058963545, 0.004, -0.01, 0.97, 192.0, 0.0, 0.0, 0.0, 0.0, 0.0, 0.0, 0.0, 0.0, 0.0, 1.684848207377619E9, 0.0, 2023-05-23 15:23:27.377
158.0, 27362.312658108793, 33614.65437586956, 21731.237677483285, -18441.217355873272, -4960.187370799466, 6533.169035097246, 30628.997758507463, 14317.49931782476, 0.004, -0.01, 0.97, 192.0, 0.0, 0.0, 0.0, 0.0, 0.0, 0.0, 0.0, 0.0, 0.0, 1.684848207377624E9, 0.0, 2023-05-23 15:23:27.377
