%OpenBCI Raw EEG Data
%Number of channels = 8
%Sample Rate = 250 Hz
%Board = OpenBCI_GUI$BoardCytonSerial
Sample Index, EXG Channel 0, EXG Channel 1, EXG Channel 2, EXG Channel 3, EXG Channel 4, EXG Channel 5, EXG Channel 6, EXG Channel 7, Accel Channel 0, Accel Channel 1, Accel Channel 2, Other, Other, Other, Other, Other, Other, Other, Analog Channel 0, Analog Channel 1, Analog Channel 2, Timestamp, Other, Timestamp (Formatted)
0.0, 0.0, 0.0, 0.0, 0.0, 0.0, 0.0, 0.0, 0.0, 0.0, 0.0, 0.0, 192.0, 0.0, 0.0, 0.0, 0.0, 0.0, 0.0, 0.0, 0.0, 0.0, 1.684835367534695E9, 0.0, 2023-05-23 11:49:27.534
1.0, 13632.59716422524, 6973.766621800259, 25122.511401475836, -5202.793205117369, 27613.03217566397, 23662.271936210625, 21321.373739406317, 2685.5620963051438, 0.002, -0.006, 0.97, 192.0, 0.0, 16.0, 255.0, 208.0, 30.0, 80.0, 0.0, 0.0, 0.0, 1.684835367597661E9, 0.0, 2023-05-23 11:49:27.597
2.0, 13634.161786337112, 6975.085374723122, 25110.68732865898, -5211.1751092881095, 27594.636689977255, 23654.717046584734, 21316.54576260397, 2672.8886571989847, 0.002, -0.006, 0.97, 192.0, 0.0, 0.0, 0.0, 0.0, 0.0, 0.0, 0.0, 0.0, 0.0, 1.684835367597667E9, 0.0, 2023-05-23 11:49:27.597
3.0, 13641.850786429739, 6983.824906805147, 25113.615407182624, -5207.17414703061, 27564.730055896052, 23655.097026240473, 21306.196904921166, 2663.679738483398, 0.002, -0.006, 0.97, 192.0, 0.0, 0.0, 0.0, 0.0, 0.0, 0.0, 0.0, 0.0, 0.0, 1.684835367597672E9, 0.0, 2023-05-23 11:49:27.597
4.0, 13627.79153916735, 6967.061098463667, 25121.237352041884, -5209.230507520498, 27585.137198583747, 23657.287497197092, 21316.478707370607, 2666.741927473775, 0.002, -0.006, 0.97, 192.0, 0.0, 0.0, 0.0, 0.0, 0.0, 0.0, 0.0, 0.0, 0.0, 1.684835367597676E9, 0.0, 2023-05-23 11:49:27.597
5.0, 13617.755605906917, 6956.37696461403, 25116.744651406367, -5199.328684726797, 27587.305317795912, 23659.34385768698, 21314.489402114083, 2665.579636762099, 0.002, -0.006, 0.97, 192.0, 0.0, 0.0, 0.0, 0.0, 0.0, 0.0, 0.0, 0.0, 0.0, 1.684835367597681E9, 0.0, 2023-05-23 11:49:27.597
6.0, 13620.996608852936, 6961.070830949644, 25114.844753127665, -5211.018647076923, 27610.729945985073, 23660.34968618747, 21321.798422550968, 2679.616532280032, 0.002, -0.006, 0.97, 192.0, 0.0, 0.0, 0.0, 0.0, 0.0, 0.0, 0.0, 0.0, 0.0, 1.684835367597685E9, 0.0, 2023-05-23 11:49:27.597
7.0, 13624.572887965785, 6967.28461590822, 25104.518247189313, -5236.142007844688, 27582.678506693665, 23655.432302407302, 21305.079317698397, 2658.7623547032304, 0.002, -0.006, 0.97, 192.0, 0.0, 0.0, 0.0, 0.0, 0.0, 0.0, 0.0, 0.0, 0.0, 1.68483536759769E9, 0.0, 2023-05-23 11:49:27.597
8.0, 13625.668123444097, 6970.972653743345, 25102.171314021507, -5224.586155961294, 27553.26361099048, 23652.258354694648, 21295.98215770509, 2645.9548051303395, 0.006, -0.008, 0.97, 192.0, 0.0, 48.0, 255.0, 192.0, 30.0, 80.0, 0.0, 0.0, 0.0, 1.684835367597694E9, 0.0, 2023-05-23 11:49:27.597
9.0, 13626.897469389138, 6970.57032234315, 25122.086718331186, -5197.0264550479005, 27585.27130905048, 23655.141729729385, 21313.572980591416, 2657.5330087581883, 0.006, -0.008, 0.97, 192.0, 0.0, 0.0, 0.0, 0.0, 0.0, 0.0, 0.0, 0.0, 0.0, 1.684835367597699E9, 0.0, 2023-05-23 11:49:27.597
10.0, 13631.859556658215, 6975.510057867773, 25130.535677735294, -5205.006027818445, 27583.907852638706, 23659.477968153715, 21314.176477691708, 2662.76331696073, 0.006, -0.008, 0.97, 192.0, 0.0, 0.0, 0.0, 0.0, 0.0, 0.0, 0.0, 0.0, 0.0, 1.684835367597703E9, 0.0, 2023-05-23 11:49:27.597
11.0, 13622.762396664906, 6966.56936008565, 25119.67272993001, -5226.329592028808, 27605.65609999372, 23651.96778201673, 21320.569076605927, 2669.8041164641522, 0.006, -0.008, 0.97, 192.0, 0.0, 0.0, 0.0, 0.0, 0.0, 0.0, 0.0, 0.0, 0.0, 1.684835367597708E9, 0.0, 2023-05-23 11:49:27.597
12.0, 13629.758492679417, 6972.112592710566, 25106.73106989039, -5219.445254736574, 27583.483169494055, 23647.095101725474, 21306.800402021458, 2645.2842527966804, 0.006, -0.008, 0.97, 192.0, 0.0, 0.0, 0.0, 0.0, 0.0, 0.0, 0.0, 0.0, 0.0, 1.684835367597713E9, 0.0, 2023-05-23 11:49:27.597
13.0, 13633.13360609217, 6976.3594241570745, 25107.334566990685, -5212.180937788598, 27546.848660331805, 23656.81811056353, 21301.905369985747, 2649.486380754278, 0.006, -0.008, 0.97, 192.0, 0.0, 0.0, 0.0, 0.0, 0.0, 0.0, 0.0, 0.0, 0.0, 1.684835367597717E9, 0.0, 2023-05-23 11:49:27.597
14.0, 13629.736140934961, 6977.90169452449, 25120.902075875056, -5215.93603085709, 27571.63674493274, 23665.624697878924, 21317.88686727129, 2672.843953710074, 0.006, -0.008, 0.97, 192.0, 0.0, 0.0, 0.0, 0.0, 0.0, 0.0, 0.0, 0.0, 0.0, 1.684835367597722E9, 0.0, 2023-05-23 11:49:27.597
15.0, 13624.483480987965, 6969.698604309393, 25120.410337497036, -5211.353923243752, 27570.966192599084, 23661.02023852113, 21314.064718969432, 2670.921703686917, 0.006, -0.008, 0.97, 192.0, 0.0, 0.0, 0.0, 0.0, 0.0, 0.0, 0.0, 0.0, 0.0, 1.684835367597727E9, 0.0, 2023-05-23 11:49:27.597
16.0, 13628.730312434473, 6963.775392028737, 25116.58818919518, -5207.107091797244, 27597.832989434362, 23658.62860186441, 21323.430099896206, 2680.644712524976, 0.006, -0.008, 0.97, 192.0, 0.0, 0.0, 0.0, 0.0, 0.0, 0.0, 0.0, 0.0, 0.0, 1.684835367658089E9, 0.0, 2023-05-23 11:49:27.658
17.0, 13632.84303341425, 6970.413860131963, 25105.97111057891, -5212.247993021964, 27575.34713451232, 23653.59945936197, 21307.89563749977, 2655.454296523845, 0.006, -0.008, 0.97, 192.0, 0.0, 0.0, 0.0, 0.0, 0.0, 0.0, 0.0, 0.0, 0.0, 1.684835367658104E9, 0.0, 2023-05-23 11:49:27.658
18.0, 13634.3182485483, 6974.928912511935, 25106.641662912567, -5212.896193611168, 27543.31708470787, 23649.129110470905, 21300.07252694041, 2649.419325520912, 0.004, -0.008, 0.968, 192.0, 0.0, 32.0, 255.0, 192.0, 30.0, 64.0, 0.0, 0.0, 0.0, 1.684835367658108E9, 0.0, 2023-05-23 11:49:27.658
19.0, 13629.043236856847, 6970.592674087606, 25123.316064276227, -5191.282056722886, 27572.575518199865, 23652.54892737257, 21313.97531199161, 2665.9596164178392, 0.004, -0.008, 0.968, 192.0, 0.0, 0.0, 0.0, 0.0, 0.0, 0.0, 0.0, 0.0, 0.0, 1.684835367658113E9, 0.0, 2023-05-23 11:49:27.658
20.0, 13627.098635089236, 6967.910464752968, 25120.946779363967, -5175.613483859716, 27573.402532744713, 23655.544061129578, 21313.751794547057, 2673.6709682549204, 0.004, -0.008, 0.968, 192.0, 0.0, 0.0, 0.0, 0.0, 0.0, 0.0, 0.0, 0.0, 0.0, 1.684835367658117E9, 0.0, 2023-05-23 11:49:27.658
21.0, 13624.304667032322, 6962.993080972801, 25113.905979860545, -5202.7261498840035, 27590.6133759753, 23655.074674496016, 21321.84312603988, 2689.183078906903, 0.004, -0.008, 0.968, 192.0, 0.0, 0.0, 0.0, 0.0, 0.0, 0.0, 0.0, 0.0, 0.0, 1.684835367658122E9, 0.0, 2023-05-23 11:49:27.658
22.0, 13630.116120590703, 6968.737479297814, 25104.272378000307, -5218.551184958361, 27567.278154763957, 23653.621811106423, 21308.6779485557, 2670.608779264543, 0.004, -0.008, 0.968, 192.0, 0.0, 0.0, 0.0, 0.0, 0.0, 0.0, 0.0, 0.0, 0.0, 1.684835367658194E9, 0.0, 2023-05-23 11:49:27.658
23.0, 13632.08307410277, 6970.816191532158, 25107.625139668602, -5207.129443541699, 27543.227677730047, 23656.21461346324, 21304.16289617573, 2661.8245436936077, 0.004, -0.008, 0.968, 192.0, 0.0, 0.0, 0.0, 0.0, 0.0, 0.0, 0.0, 0.0, 0.0, 1.684835367658199E9, 0.0, 2023-05-23 11:49:27.658
24.0, 13625.109329832714, 6964.155371684476, 25120.946779363967, -5198.814594604325, 27578.163454313693, 23658.807415820054, 21312.321282901918, 2665.3114158286353, 0.004, -0.008, 0.968, 192.0, 0.0, 0.0, 0.0, 0.0, 0.0, 0.0, 0.0, 0.0, 0.0, 1.684835367658204E9, 0.0, 2023-05-23 11:49:27.658
25.0, 13624.237611798957, 6963.373060628541, 25121.863200886633, -5189.493917166462, 27563.478358206554, 23663.81420657804, 21305.63811130978, 2664.774973961708, 0.004, -0.008, 0.968, 192.0, 0.0, 0.0, 0.0, 0.0, 0.0, 0.0, 0.0, 0.0, 0.0, 1.684835367658209E9, 0.0, 2023-05-23 11:49:27.658
26.0, 13617.59914369573, 6959.774429771237, 25119.53861946328, -5200.155699271643, 27579.057524091902, 23665.848215323476, 21317.55159110446, 2682.298741614669, 0.004, -0.008, 0.968, 192.0, 0.0, 0.0, 0.0, 0.0, 0.0, 0.0, 0.0, 0.0, 0.0, 1.684835367658213E9, 0.0, 2023-05-23 11:49:27.658
27.0, 13615.609838439208, 6954.968804713346, 25106.686366401478, -5214.349057000763, 27557.13046278125, 23654.046494251073, 21302.10653568584, 2654.7837441901856, 0.004, -0.008, 0.968, 192.0, 0.0, 0.0, 0.0, 0.0, 0.0, 0.0, 0.0, 0.0, 0.0, 1.68483536765822E9, 0.0, 2023-05-23 11:49:27.658
28.0, 13622.918858876094, 6960.914368738458, 25113.481296715894, -5208.895231353668, 27533.68348284763, 23655.38759891839, 21293.791686748467, 2650.38045053249, 0.004, -0.01, 0.968, 192.0, 0.0, 32.0, 255.0, 176.0, 30.0, 64.0, 0.0, 0.0, 0.0, 1.684835367658224E9, 0.0, 2023-05-23 11:49:27.658
29.0, 13624.930515877071, 6966.457601363373, 25130.69213994648, -5202.45792895054, 27566.093512307827, 23667.368133946435, 21320.636131839292, 2686.322055616624, 0.004, -0.01, 0.968, 192.0, 0.0, 0.0, 0.0, 0.0, 0.0, 0.0, 0.0, 0.0, 0.0, 1.684835367658229E9, 0.0, 2023-05-23 11:49:27.658
30.0, 13631.568983980296, 6971.933778754924, 25135.78833768229, -5199.283981237886, 27564.08185530685, 23672.4866834267, 21315.94226550368, 2683.0139974372387, 0.004, -0.01, 0.968, 192.0, 0.0, 0.0, 0.0, 0.0, 0.0, 0.0, 0.0, 0.0, 0.0, 1.684835367658235E9, 0.0, 2023-05-23 11:49:27.658
31.0, 13626.472786244487, 6963.7977437731915, 25129.529849234805, -5205.900097596657, 27583.863149149794, 23668.061038024553, 21318.847992282866, 2688.3337126176016, 0.004, -0.01, 0.968, 192.0, 0.0, 0.0, 0.0, 0.0, 0.0, 0.0, 0.0, 0.0, 0.0, 1.684835367718362E9, 0.0, 2023-05-23 11:49:27.718
32.0, 13627.813890911806, 6965.787049029715, 25120.522096219316, -5217.6347634356935, 27561.667866905675, 23658.270973953127, 21306.64393981027, 2662.6515582384536, 0.004, -0.01, 0.968, 192.0, 0.0, 0.0, 0.0, 0.0, 0.0, 0.0, 0.0, 0.0, 0.0, 1.684835367718377E9, 0.0, 2023-05-23 11:49:27.718
33.0, 13645.158844609125, 6984.204886460887, 25134.290770803782, -5198.769891115415, 27536.432747415634, 23648.659723837343, 21294.64105303777, 2641.7750289171972, 0.004, -0.01, 0.968, 192.0, 0.0, 0.0, 0.0, 0.0, 0.0, 0.0, 0.0, 0.0, 0.0, 1.684835367718383E9, 0.0, 2023-05-23 11:49:27.718
34.0, 13649.472731288997, 6982.416746904462, 25146.941858165486, -5178.40745191663, 27562.763102383986, 23660.39438967638, 21308.74500378907, 2651.654499966443, 0.004, -0.01, 0.968, 192.0, 0.0, 0.0, 0.0, 0.0, 0.0, 0.0, 0.0, 0.0, 0.0, 1.684835367718388E9, 0.0, 2023-05-23 11:49:27.718
35.0, 13633.044199114347, 6962.434287361418, 25131.429747513503, -5185.023568275401, 27564.59594542932, 23675.146541016882, 21316.724576559613, 2673.134526387993, 0.004, -0.01, 0.968, 192.0, 0.0, 0.0, 0.0, 0.0, 0.0, 0.0, 0.0, 0.0, 0.0, 1.684835367718393E9, 0.0, 2023-05-23 11:49:27.718
36.0, 13626.65160020013, 6954.991156457801, 25117.05757582874, -5188.085757265778, 27576.442369990633, 23671.749075859676, 21326.000550508565, 2688.6466370399758, 0.004, -0.01, 0.968, 192.0, 0.0, 0.0, 0.0, 0.0, 0.0, 0.0, 0.0, 0.0, 0.0, 1.684835367718397E9, 0.0, 2023-05-23 11:49:27.718
37.0, 13637.380437538677, 6966.502304852284, 25112.72133740441, -5187.54931539885, 27554.537660424434, 23665.982325790206, 21320.07733822791, 2676.4649363118338, 0.004, -0.01, 0.968, 192.0, 0.0, 0.0, 0.0, 0.0, 0.0, 0.0, 0.0, 0.0, 0.0, 1.684835367718402E9, 0.0, 2023-05-23 11:49:27.718
38.0, 13651.283222589878, 6982.506153882284, 25123.137250320586, -5188.59984738825, 27528.140250222714, 23664.30594495606, 21314.69056781418, 2669.357081575046, 0.002, -0.008, 0.972, 192.0, 0.0, 16.0, 255.0, 192.0, 30.0, 96.0, 0.0, 0.0, 0.0, 1.684835367718407E9, 0.0, 2023-05-23 11:49:27.718
39.0, 13648.690420233062, 6977.879342780036, 25135.765985937833, -5191.215001489521, 27555.543488924923, 23672.754904360165, 21328.816870309936, 2683.1704596484255, 0.002, -0.008, 0.972, 192.0, 0.0, 0.0, 0.0, 0.0, 0.0, 0.0, 0.0, 0.0, 0.0, 1.684835367718414E9, 0.0, 2023-05-23 11:49:27.718
40.0, 13641.247289329445, 6970.5479705986945, 25132.167355080528, -5201.183879516588, 27545.887535320227, 23681.583843420012, 21325.59821910837, 2685.1821166494033, 0.002, -0.008, 0.972, 192.0, 0.0, 0.0, 0.0, 0.0, 0.0, 0.0, 0.0, 0.0, 0.0, 1.684835367718422E9, 0.0, 2023-05-23 11:49:27.718
41.0, 13639.280335817379, 6965.876456007535, 25127.74170967838, -5202.301466739353, 27561.31023899439, 23684.064887054552, 21332.30374244496, 2694.1898696648923, 0.002, -0.008, 0.972, 192.0, 0.0, 0.0, 0.0, 0.0, 0.0, 0.0, 0.0, 0.0, 0.0, 1.684835367718428E9, 0.0, 2023-05-23 11:49:27.718
42.0, 13655.530054036386, 6978.035804991223, 25125.998273610865, -5195.238315491476, 27551.36371271178, 23680.175683519326, 21323.69832082967, 2687.86432598404, 0.002, -0.008, 0.972, 192.0, 0.0, 0.0, 0.0, 0.0, 0.0, 0.0, 0.0, 0.0, 0.0, 1.684835367718437E9, 0.0, 2023-05-23 11:49:27.718
43.0, 13659.955699438537, 6983.869610294058, 25127.764061422833, -5203.754330128948, 27519.601883840787, 23677.180549762317, 21310.80136427896, 2679.325959602113, 0.002, -0.008, 0.972, 192.0, 0.0, 0.0, 0.0, 0.0, 0.0, 0.0, 0.0, 0.0, 0.0, 1.684835367718491E9, 0.0, 2023-05-23 11:49:27.718
44.0, 13651.998478412448, 6977.164086957466, 25140.616314484636, -5189.560972399828, 27538.15383173869, 23676.59940440648, 21316.769280048524, 2680.063567169138, 0.002, -0.008, 0.972, 192.0, 0.0, 0.0, 0.0, 0.0, 0.0, 0.0, 0.0, 0.0, 0.0, 1.684835367718498E9, 0.0, 2023-05-23 11:49:27.718
45.0, 13644.912975420115, 6971.374985143541, 25141.599791240667, -5189.896248566657, 27532.722357836054, 23672.531386915613, 21303.581750819892, 2665.1102501285377, 0.002, -0.008, 0.972, 192.0, 0.0, 0.0, 0.0, 0.0, 0.0, 0.0, 0.0, 0.0, 0.0, 1.684835367718503E9, 0.0, 2023-05-23 11:49:27.718
46.0, 13640.107350362225, 6967.217560674854, 25138.984637139398, -5210.325742998808, 27557.957477326094, 23665.803511834565, 21315.65169282576, 2676.710805500842, 0.002, -0.008, 0.972, 192.0, 0.0, 0.0, 0.0, 0.0, 0.0, 0.0, 0.0, 0.0, 0.0, 1.684835367778536E9, 0.0, 2023-05-23 11:49:27.778
47.0, 13653.473693546499, 6980.069813736655, 25132.167355080528, -5204.380178973696, 27548.189764999126, 23667.30107871307, 21319.60795159435, 2676.9566746898504, 0.002, -0.008, 0.972, 192.0, 0.0, 0.0, 0.0, 0.0, 0.0, 0.0, 0.0, 0.0, 0.0, 1.684835367778546E9, 0.0, 2023-05-23 11:49:27.778
48.0, 13663.643737273662, 6988.38466267403, 25135.050730115265, -5189.605675888739, 27525.480392632533, 23671.793779348587, 21313.572980591416, 2671.905180442951, 0.002, -0.008, 0.972, 192.0, 0.0, 0.0, 255.0, 176.0, 30.0, 112.0, 0.0, 0.0, 0.0, 1.684835367778551E9, 0.0, 2023-05-23 11:49:27.778
49.0, 13655.12772263619, 6982.662616093471, 25151.479262289915, -5180.2402949619645, 27549.50851792199, 23675.079485783517, 21321.284332428495, 2671.9498839318617, 0.002, -0.008, 0.972, 192.0, 0.0, 0.0, 0.0, 0.0, 0.0, 0.0, 0.0, 0.0, 0.0, 1.684835367778556E9, 0.0, 2023-05-23 11:49:27.778
50.0, 13649.025696399893, 6979.153392213988, 25143.477337774915, -5196.668827136616, 27534.421090414657, 23666.630526379413, 21298.060869939432, 2641.99854636175, 0.002, -0.008, 0.972, 192.0, 0.0, 0.0, 0.0, 0.0, 0.0, 0.0, 0.0, 0.0, 0.0, 1.684835367778561E9, 0.0, 2023-05-23 11:49:27.778
51.0, 13641.515510262909, 6963.551874584184, 25132.25676205835, -5204.335475484786, 27559.432692460145, 23661.914308299343, 21315.159954447743, 2663.8585524390405, 0.002, -0.008, 0.972, 192.0, 0.0, 0.0, 0.0, 0.0, 0.0, 0.0, 0.0, 0.0, 0.0, 1.684835367778565E9, 0.0, 2023-05-23 11:49:27.778
52.0, 13646.74581846545, 6968.71512755336, 25121.036186341786, -5205.855394107747, 27551.40841620069, 23662.316639699537, 21328.258076698552, 2672.128697887504, 0.002, -0.008, 0.972, 192.0, 0.0, 0.0, 0.0, 0.0, 0.0, 0.0, 0.0, 0.0, 0.0, 1.68483536777857E9, 0.0, 2023-05-23 11:49:27.778
53.0, 13648.958641166526, 6973.85602877808, 25122.198477053462, -5194.79128060237, 27518.752517551486, 23663.747151344676, 21315.428175381207, 2666.38429956249, 0.002, -0.008, 0.972, 192.0, 0.0, 0.0, 0.0, 0.0, 0.0, 0.0, 0.0, 0.0, 0.0, 1.684835367778574E9, 0.0, 2023-05-23 11:49:27.778
54.0, 13648.779827210883, 6970.5479705986945, 25136.79416618278, -5193.204306746043, 27538.578514883342, 23672.374924704425, 21326.55934411995, 2674.743851988775, 0.002, -0.008, 0.972, 192.0, 0.0, 0.0, 0.0, 0.0, 0.0, 0.0, 0.0, 0.0, 0.0, 1.684835367778579E9, 0.0, 2023-05-23 11:49:27.778
55.0, 13649.517434777908, 6972.358461899575, 25142.806785441255, -5187.661074121127, 27534.801070070396, 23679.840407352498, 21324.011245252044, 2677.716634001331, 0.002, -0.008, 0.972, 192.0, 0.0, 0.0, 0.0, 0.0, 0.0, 0.0, 0.0, 0.0, 0.0, 1.684835367778595E9, 0.0, 2023-05-23 11:49:27.778
56.0, 13637.156920094123, 6961.070830949644, 25134.849564415166, -5184.285960708376, 27559.49974769351, 23674.185416005304, 21331.052044755466, 2689.6971690293753, 0.002, -0.008, 0.972, 192.0, 0.0, 0.0, 0.0, 0.0, 0.0, 0.0, 0.0, 0.0, 0.0, 1.6848353677786E9, 0.0, 2023-05-23 11:49:27.778
57.0, 13644.354181808732, 6966.815229274658, 25121.63968344208, -5188.085757265778, 27543.562953896875, 23664.01537227814, 21330.046216254977, 2681.449375325367, 0.002, -0.008, 0.972, 192.0, 0.0, 0.0, 0.0, 0.0, 0.0, 0.0, 0.0, 0.0, 0.0, 1.684835367778604E9, 0.0, 2023-05-23 11:49:27.778
58.0, 13653.18312086858, 6975.487706123317, 25125.283017788293, -5203.463757451029, 27511.19762792559, 23655.58876461849, 21322.06664348443, 2680.063567169138, 0.002, -0.01, 0.976, 192.0, 0.0, 16.0, 255.0, 176.0, 30.0, 128.0, 0.0, 0.0, 0.0, 1.684835367778609E9, 0.0, 2023-05-23 11:49:27.778
59.0, 13646.499949276442, 6972.939607255413, 25140.146927851074, -5202.904963839646, 27529.771927567952, 23657.600421619467, 21329.0850912434, 2678.38718633499, 0.002, -0.01, 0.976, 192.0, 0.0, 0.0, 0.0, 0.0, 0.0, 0.0, 0.0, 0.0, 0.0, 1.684835367778614E9, 0.0, 2023-05-23 11:49:27.778
60.0, 13646.678763232085, 6975.8900375235135, 25141.97977089641, -5195.573591658305, 27535.963360782072, 23663.076599011016, 21318.713881816137, 2665.4678780398226, 0.002, -0.01, 0.976, 192.0, 0.0, 0.0, 0.0, 0.0, 0.0, 0.0, 0.0, 0.0, 0.0, 1.684835367778618E9, 0.0, 2023-05-23 11:49:27.778
61.0, 13635.502891004431, 6961.607272816572, 25133.50845974785, -5196.802937603347, 27564.730055896052, 23662.7860263331, 21328.347483676374, 2678.2083723793476, 0.002, -0.01, 0.976, 192.0, 0.0, 0.0, 0.0, 0.0, 0.0, 0.0, 0.0, 0.0, 0.0, 1.684835367838804E9, 0.0, 2023-05-23 11:49:27.838
62.0, 13642.633097485674, 6969.631549076027, 25120.74561366387, -5200.110995782733, 27547.608619643288, 23660.193223976283, 21320.12204171682, 2661.802191949152, 0.002, -0.01, 0.976, 192.0, 0.0, 0.0, 0.0, 0.0, 0.0, 0.0, 0.0, 0.0, 0.0, 1.684835367838814E9, 0.0, 2023-05-23 11:49:27.838
63.0, 13660.045106416359, 6986.775337073248, 25127.406433511547, -5194.6795218800935, 27518.64075882921, 23663.166005988838, 21305.995739221067, 2648.704069698342, 0.002, -0.01, 0.976, 192.0, 0.0, 0.0, 0.0, 0.0, 0.0, 0.0, 0.0, 0.0, 0.0, 1.684835367838818E9, 0.0, 2023-05-23 11:49:27.838
64.0, 13660.000402927448, 6983.266113193765, 25143.656151730556, -5187.839888076769, 27536.432747415634, 23667.457540924257, 21310.890771256778, 2653.4649912673226, 0.002, -0.01, 0.976, 192.0, 0.0, 0.0, 0.0, 0.0, 0.0, 0.0, 0.0, 0.0, 0.0, 1.684835367838834E9, 0.0, 2023-05-23 11:49:27.838
65.0, 13662.995536684459, 6986.887095795524, 25146.763044209845, -5178.429803661085, 27538.466756161066, 23671.39144794839, 21312.902428257756, 2656.3036628131467, 0.002, -0.01, 0.976, 192.0, 0.0, 0.0, 0.0, 0.0, 0.0, 0.0, 0.0, 0.0, 0.0, 1.684835367838838E9, 0.0, 2023-05-23 11:49:27.838
66.0, 13662.347336095256, 6986.19419171741, 25148.752349466366, -5192.556106156839, 27573.73780891154, 23668.64218338039, 21333.60014362337, 2683.930418959906, 0.002, -0.01, 0.976, 192.0, 0.0, 0.0, 0.0, 0.0, 0.0, 0.0, 0.0, 0.0, 0.0, 1.684835367838842E9, 0.0, 2023-05-23 11:49:27.838
67.0, 13673.031469944892, 6998.398244190007, 25140.05752087325, -5201.407396961141, 27559.589154671332, 23672.374924704425, 21333.689550601193, 2683.7292532598085, 0.002, -0.01, 0.976, 192.0, 0.0, 0.0, 0.0, 0.0, 0.0, 0.0, 0.0, 0.0, 0.0, 1.684835367838847E9, 0.0, 2023-05-23 11:49:27.838
68.0, 13682.352147382755, 7009.596468162116, 25141.085701118198, -5174.78646931487, 27518.149020451194, 23673.581918905013, 21318.400957393762, 2672.3298635876017, 0.002, -0.014, 0.972, 192.0, 0.0, 16.0, 255.0, 144.0, 30.0, 96.0, 0.0, 0.0, 0.0, 1.684835367838851E9, 0.0, 2023-05-23 11:49:27.838
69.0, 13668.024679186903, 6996.72186335586, 25154.40734081356, -5149.6631085471045, 27538.936142794628, 23675.705334628266, 21331.52143138903, 2684.1762881489144, 0.002, -0.014, 0.972, 192.0, 0.0, 0.0, 0.0, 0.0, 0.0, 0.0, 0.0, 0.0, 0.0, 1.684835367838856E9, 0.0, 2023-05-23 11:49:27.838
70.0, 13658.122856393202, 6976.873514279547, 25143.723206963925, -5172.908922780624, 27544.702892864098, 23677.314660229047, 21337.51169890305, 2680.1529741469594, 0.002, -0.014, 0.972, 192.0, 0.0, 0.0, 0.0, 0.0, 0.0, 0.0, 0.0, 0.0, 0.0, 1.68483536783886E9, 0.0, 2023-05-23 11:49:27.838
71.0, 13649.338620822266, 6970.57032234315, 25139.185802839496, -5187.817536332314, 27564.08185530685, 23671.749075859676, 21344.977181551123, 2687.506698072755, 0.002, -0.014, 0.972, 192.0, 0.0, 0.0, 0.0, 0.0, 0.0, 0.0, 0.0, 0.0, 0.0, 1.684835367838865E9, 0.0, 2023-05-23 11:49:27.838
72.0, 13650.120931878202, 6972.470220621851, 25129.418090512525, -5194.008969546434, 27543.339436452323, 23660.863776309943, 21332.281390700507, 2669.066508897127, 0.002, -0.014, 0.972, 192.0, 0.0, 0.0, 0.0, 0.0, 0.0, 0.0, 0.0, 0.0, 0.0, 1.684835367838869E9, 0.0, 2023-05-23 11:49:27.838
73.0, 13665.454228574543, 6987.289427195719, 25134.49193650388, -5185.604713631238, 27512.225808170537, 23666.384657190403, 21323.02776849601, 2654.9178546569174, 0.002, -0.014, 0.972, 192.0, 0.0, 0.0, 0.0, 0.0, 0.0, 0.0, 0.0, 0.0, 0.0, 1.684835367838874E9, 0.0, 2023-05-23 11:49:27.838
74.0, 13664.202530885046, 6988.2729039517535, 25153.513271035346, -5179.50268739494, 27540.768985839964, 23677.269956740136, 21341.22208848263, 2672.9557124323505, 0.002, -0.014, 0.972, 192.0, 0.0, 0.0, 0.0, 0.0, 0.0, 0.0, 0.0, 0.0, 0.0, 1.684835367838879E9, 0.0, 2023-05-23 11:49:27.838
75.0, 13661.319155850311, 6985.0989562391, 25151.903945434566, -5189.538620655372, 27545.909887064685, 23679.371020718936, 21337.824623325425, 2666.4290030514007, 0.002, -0.014, 0.972, 192.0, 0.0, 0.0, 0.0, 0.0, 0.0, 0.0, 0.0, 0.0, 0.0, 1.684835367838883E9, 0.0, 2023-05-23 11:49:27.838
76.0, 13653.56310052432, 6979.533371869728, 25146.897154676575, -5183.905981052635, 27566.49584370802, 23678.141674773895, 21345.670085629237, 2681.739948003286, 0.002, -0.014, 0.972, 192.0, 0.0, 0.0, 0.0, 0.0, 0.0, 0.0, 0.0, 0.0, 0.0, 1.684835367897666E9, 0.0, 2023-05-23 11:49:27.897
77.0, 13664.515455307419, 6988.317607440664, 25135.050730115265, -5142.152922410121, 27545.418148686666, 23674.028953794117, 21343.41255943925, 2682.343445103579, 0.002, -0.014, 0.972, 192.0, 0.0, 0.0, 0.0, 0.0, 0.0, 0.0, 0.0, 0.0, 0.0, 1.684835367897676E9, 0.0, 2023-05-23 11:49:27.897
78.0, 13677.770039769417, 6998.733520356837, 25136.682407460503, -5165.666957577105, 27502.167523165648, 23674.475988683225, 21327.140489475787, 2671.3463868315685, 0.004, -0.012, 0.97, 192.0, 0.0, 32.0, 255.0, 160.0, 30.0, 80.0, 0.0, 0.0, 0.0, 1.684835367897681E9, 0.0, 2023-05-23 11:49:27.897
79.0, 13666.214187886024, 6988.027034762745, 25151.34515182318, -5180.486164150973, 27526.754442066485, 23678.789875363098, 21335.20946922415, 2672.91100894344, 0.004, -0.012, 0.97, 192.0, 0.0, 0.0, 0.0, 0.0, 0.0, 0.0, 0.0, 0.0, 0.0, 1.684835367897685E9, 0.0, 2023-05-23 11:49:27.897
80.0, 13662.235577372978, 6987.132964984533, 25149.60171575567, -5179.033300761378, 27529.034320000927, 23672.911366571352, 21326.045253997476, 2662.517447771722, 0.004, -0.012, 0.97, 192.0, 0.0, 0.0, 0.0, 0.0, 0.0, 0.0, 0.0, 0.0, 0.0, 1.68483536789769E9, 0.0, 2023-05-23 11:49:27.897
81.0, 13653.160769124124, 6980.650959092493, 25145.712512220445, -5182.855449063236, 27550.69316037812, 23670.02799153662, 21334.762434335047, 2676.6213985230206, 0.004, -0.012, 0.97, 192.0, 0.0, 0.0, 0.0, 0.0, 0.0, 0.0, 0.0, 0.0, 0.0, 1.684835367897695E9, 0.0, 2023-05-23 11:49:27.897
82.0, 13666.437705330576, 6991.804479575691, 25136.570648738223, -5184.509478152929, 27535.091642748313, 23667.234023479705, 21331.253210455565, 2669.1112123860376, 0.004, -0.012, 0.97, 192.0, 0.0, 0.0, 0.0, 0.0, 0.0, 0.0, 0.0, 0.0, 0.0, 1.684835367897701E9, 0.0, 2023-05-23 11:49:27.897
83.0, 13669.522246065408, 6996.274828466753, 25136.41418652704, -5182.721338596504, 27504.223883655537, 23666.608174634956, 21321.239628939587, 2668.552418774655, 0.004, -0.012, 0.97, 192.0, 0.0, 0.0, 0.0, 0.0, 0.0, 0.0, 0.0, 0.0, 0.0, 1.684835367897706E9, 0.0, 2023-05-23 11:49:27.897
84.0, 13665.543635552363, 6992.363273187074, 25157.670695504035, -5172.350129169242, 27538.82438407235, 23679.4380759523, 21333.264867456543, 2680.9576369473502, 0.004, -0.012, 0.97, 192.0, 0.0, 0.0, 0.0, 0.0, 0.0, 0.0, 0.0, 0.0, 0.0, 1.684835367897712E9, 0.0, 2023-05-23 11:49:27.897
85.0, 13668.829341987293, 6993.950247043401, 25156.441349558994, -5164.527018609884, 27533.191744469616, 23683.014355065152, 21325.59821910837, 2670.966407175828, 0.004, -0.012, 0.97, 192.0, 0.0, 0.0, 0.0, 0.0, 0.0, 0.0, 0.0, 0.0, 0.0, 1.684835367897717E9, 0.0, 2023-05-23 11:49:27.897
86.0, 13664.984841940981, 6990.642188864016, 25151.300448334274, -5175.524076881895, 27557.97982907055, 23677.605232906968, 21342.205565238663, 2686.098538172071, 0.004, -0.012, 0.97, 192.0, 0.0, 0.0, 0.0, 0.0, 0.0, 0.0, 0.0, 0.0, 0.0, 1.684835367897761E9, 0.0, 2023-05-23 11:49:27.897
87.0, 13670.997461199458, 6996.0513110222, 25140.07987261771, -5183.011911274423, 27541.283075962434, 23667.949279302273, 21338.808100081456, 2678.364834590535, 0.004, -0.012, 0.97, 192.0, 0.0, 0.0, 0.0, 0.0, 0.0, 0.0, 0.0, 0.0, 0.0, 1.684835367897767E9, 0.0, 2023-05-23 11:49:27.897
88.0, 13675.870141490715, 7002.667427380971, 25139.766948195334, -5146.600919556728, 27506.637872056708, 23658.15921523085, 21324.279466185508, 2657.778877947197, 0.004, -0.012, 0.97, 192.0, 0.0, 0.0, 0.0, 0.0, 0.0, 0.0, 0.0, 0.0, 0.0, 1.684835367897773E9, 0.0, 2023-05-23 11:49:27.897
89.0, 13663.956661696036, 6994.2631714657755, 25149.55701226676, -5155.921596994591, 27534.197572970104, 23658.025104764118, 21328.056910998454, 2654.627281978999, 0.004, -0.016, 0.976, 192.0, 0.0, 32.0, 255.0, 128.0, 30.0, 128.0, 0.0, 0.0, 0.0, 1.684835367897778E9, 0.0, 2023-05-23 11:49:27.897
90.0, 13666.393001841665, 6999.202906990398, 25154.764968724845, -5165.376384899186, 27535.06929100386, 23666.786988590597, 21325.709977830647, 2651.3415755440683, 0.004, -0.016, 0.976, 192.0, 0.0, 0.0, 0.0, 0.0, 0.0, 0.0, 0.0, 0.0, 0.0, 1.684835367897783E9, 0.0, 2023-05-23 11:49:27.897
91.0, 13656.714696492518, 6992.720901098359, 25150.96517216744, -5172.439536147062, 27555.63289590274, 23673.29134622709, 21349.00049555308, 2678.2977793571686, 0.004, -0.016, 0.976, 192.0, 0.0, 0.0, 0.0, 0.0, 0.0, 0.0, 0.0, 0.0, 0.0, 1.684835367962616E9, 0.0, 2023-05-23 11:49:27.962
92.0, 13664.001365184948, 6996.341883700119, 25141.465680773937, -5174.115916981211, 27543.339436452323, 23673.380753204914, 21344.66425712875, 2671.6816629983978, 0.004, -0.016, 0.976, 192.0, 0.0, 0.0, 0.0, 0.0, 0.0, 0.0, 0.0, 0.0, 0.0, 1.684835367962624E9, 0.0, 2023-05-23 11:49:27.962
93.0, 13673.254987389444, 7004.410863448485, 25144.192593597483, -5160.59311158575, 27510.482372103022, 23676.17472126183, 21333.667198856736, 2659.81288669263, 0.004, -0.016, 0.976, 192.0, 0.0, 0.0, 0.0, 0.0, 0.0, 0.0, 0.0, 0.0, 0.0, 1.684835367962627E9, 0.0, 2023-05-23 11:49:27.962
94.0, 13663.353164595745, 6993.771433087759, 25153.759140224356, -5159.252006918431, 27533.325854936345, 23679.751000374676, 21344.150167006275, 2659.7011279703534, 0.004, -0.016, 0.976, 192.0, 0.0, 0.0, 0.0, 0.0, 0.0, 0.0, 0.0, 0.0, 0.0, 1.68483536796263E9, 0.0, 2023-05-23 11:49:27.962
95.0, 13669.2763768764, 6998.95703780139, 25157.648343759578, -5165.108163965722, 27531.82828805784, 23683.327279487527, 21336.28235295801, 2652.615624978021, 0.004, -0.016, 0.976, 192.0, 0.0, 0.0, 0.0, 0.0, 0.0, 0.0, 0.0, 0.0, 0.0, 1.684835367962633E9, 0.0, 2023-05-23 11:49:27.962
96.0, 13660.13451339418, 6990.038691763722, 25155.68139024751, -5152.233559159465, 27552.190727256624, 23683.416686465345, 21340.573887893428, 2666.361947818035, 0.004, -0.016, 0.976, 192.0, 0.0, 0.0, 0.0, 0.0, 0.0, 0.0, 0.0, 0.0, 0.0, 1.684835367962637E9, 0.0, 2023-05-23 11:49:27.962
97.0, 13663.733144251484, 6994.7325580993365, 25144.21494534194, -5176.865181549213, 27541.46188991808, 23671.88318632641, 21328.749815076568, 2651.676851710898, 0.004, -0.016, 0.976, 192.0, 0.0, 0.0, 0.0, 0.0, 0.0, 0.0, 0.0, 0.0, 0.0, 1.68483536796264E9, 0.0, 2023-05-23 11:49:27.962
98.0, 13681.256911904446, 7013.977410075357, 25158.341247837692, -5156.458038861518, 27507.464886601556, 23664.06007576705, 21311.449564868162, 2634.197787546848, 0.004, -0.016, 0.976, 192.0, 0.0, 0.0, 0.0, 0.0, 0.0, 0.0, 0.0, 0.0, 0.0, 1.684835367962643E9, 0.0, 2023-05-23 11:49:27.962
99.0, 13673.925539723105, 7008.903564084001, 25173.629841045124, -5137.727277007971, 27531.805936313383, 23679.974517819228, 21335.343579690885, 2664.059718139138, 0.006, -0.014, 0.978, 192.0, 0.0, 48.0, 255.0, 144.0, 30.0, 144.0, 0.0, 0.0, 0.0, 1.684835367962646E9, 0.0, 2023-05-23 11:49:27.962
100.0, 13659.396905827154, 6995.984255788834, 25162.20809962846, -5153.775829526881, 27530.53188687943, 23686.568282433545, 21336.148242491276, 2659.7011279703534, 0.006, -0.014, 0.978, 192.0, 0.0, 0.0, 0.0, 0.0, 0.0, 0.0, 0.0, 0.0, 0.0, 1.684835367962649E9, 0.0, 2023-05-23 11:49:27.962
101.0, 13655.530054036386, 6989.3904911745185, 25154.89907919158, -5155.251044660931, 27550.44729118911, 23681.06975329754, 21350.118082775844, 2672.419270565423, 0.006, -0.014, 0.978, 192.0, 0.0, 0.0, 0.0, 0.0, 0.0, 0.0, 0.0, 0.0, 0.0, 1.684835367962652E9, 0.0, 2023-05-23 11:49:27.962
102.0, 13659.955699438537, 6990.642188864016, 25138.761119694846, -5162.224788930987, 27540.16548873967, 23673.648974138378, 21345.603030395872, 2668.641825752476, 0.006, -0.014, 0.978, 192.0, 0.0, 0.0, 0.0, 0.0, 0.0, 0.0, 0.0, 0.0, 0.0, 1.684835367962656E9, 0.0, 2023-05-23 11:49:27.962
103.0, 13679.915807237127, 7005.953133815901, 25144.237297086394, -5152.25591090392, 27508.694232546597, 23674.632450894413, 21336.237649469098, 2658.203561091848, 0.006, -0.014, 0.978, 192.0, 0.0, 0.0, 0.0, 0.0, 0.0, 0.0, 0.0, 0.0, 0.0, 1.684835367962659E9, 0.0, 2023-05-23 11:49:27.962
104.0, 13669.522246065408, 6997.347712200608, 25158.765930982347, -5155.519265594396, 27525.659206588174, 23679.751000374676, 21345.290105973498, 2662.5397995161775, 0.006, -0.014, 0.978, 192.0, 0.0, 0.0, 0.0, 0.0, 0.0, 0.0, 0.0, 0.0, 0.0, 1.684835367962662E9, 0.0, 2023-05-23 11:49:27.962
105.0, 13664.671917518606, 6990.306912697186, 25156.30723909226, -5160.727222052482, 27518.283130917924, 23678.856930596463, 21335.20946922415, 2650.939244143873, 0.006, -0.014, 0.978, 192.0, 0.0, 0.0, 0.0, 0.0, 0.0, 0.0, 0.0, 0.0, 0.0, 1.684835367962665E9, 0.0, 2023-05-23 11:49:27.962
106.0, 13660.670955261106, 6985.657749850482, 25157.9389164375, -5156.413335372607, 27542.914753307672, 23670.586785148, 21342.40673093876, 2660.0587558816383, 0.006, -0.014, 0.978, 192.0, 0.0, 0.0, 0.0, 0.0, 0.0, 0.0, 0.0, 0.0, 0.0, 1.684835368018409E9, 0.0, 2023-05-23 11:49:28.018
107.0, 13668.963452454025, 6995.157241243987, 25150.272268089328, -5171.634873346672, 27534.421090414657, 23668.485721169203, 21337.489347158593, 2652.101534855549, 0.006, -0.014, 0.978, 192.0, 0.0, 0.0, 0.0, 0.0, 0.0, 0.0, 0.0, 0.0, 0.0, 1.684835368018456E9, 0.0, 2023-05-23 11:49:28.018
108.0, 13683.313272394333, 7012.144567030021, 25155.949611180975, -5163.543541853851, 27498.993575452994, 23666.831692079508, 21325.620570852825, 2640.2774620386913, 0.006, -0.014, 0.978, 192.0, 0.0, 0.0, 0.0, 0.0, 0.0, 0.0, 0.0, 0.0, 0.0, 1.68483536801846E9, 0.0, 2023-05-23 11:49:28.018
109.0, 13678.66410954763, 7009.417654206473, 25176.244995146393, -5157.709736551015, 27519.288959418413, 23671.793779348587, 21333.35427443436, 2646.6924126973645, 0.006, -0.014, 0.974, 192.0, 0.0, 48.0, 255.0, 144.0, 30.0, 112.0, 0.0, 0.0, 0.0, 1.684835368018464E9, 0.0, 2023-05-23 11:49:28.018
110.0, 13679.915807237127, 7005.684912882437, 25179.530701581327, -5164.236445931965, 27517.25495067298, 23675.839445094996, 21323.69832082967, 2638.645784693454, 0.006, -0.014, 0.974, 192.0, 0.0, 0.0, 0.0, 0.0, 0.0, 0.0, 0.0, 0.0, 0.0, 1.684835368018467E9, 0.0, 2023-05-23 11:49:28.018
111.0, 13673.076173433803, 6999.38172094604, 25173.40632360057, -5170.316120423809, 27547.4521574321, 23680.376849219425, 21340.953867549168, 2659.3658518035236, 0.006, -0.014, 0.974, 192.0, 0.0, 0.0, 0.0, 0.0, 0.0, 0.0, 0.0, 0.0, 0.0, 1.684835368018471E9, 0.0, 2023-05-23 11:49:28.018
112.0, 13673.210283900535, 6998.532354656739, 25153.40151231307, -5150.8924544921465, 27535.292808448412, 23670.363267703447, 21335.321227946428, 2648.704069698342, 0.006, -0.014, 0.974, 192.0, 0.0, 0.0, 0.0, 0.0, 0.0, 0.0, 0.0, 0.0, 0.0, 1.684835368018475E9, 0.0, 2023-05-23 11:49:28.018
113.0, 13685.861371262237, 7010.468186195873, 25153.557974524258, -5145.125704422678, 27503.352165621778, 23663.45657866676, 21325.397053408273, 2632.5214067127, 0.006, -0.014, 0.974, 192.0, 0.0, 0.0, 0.0, 0.0, 0.0, 0.0, 0.0, 0.0, 0.0, 1.68483536801848E9, 0.0, 2023-05-23 11:49:28.018
114.0, 13680.362842126233, 7010.378779218052, 25172.75812301137, -5129.971221681979, 27524.183991454127, 23669.379790947412, 21336.237649469098, 2641.596214961555, 0.006, -0.014, 0.974, 192.0, 0.0, 0.0, 0.0, 0.0, 0.0, 0.0, 0.0, 0.0, 0.0, 1.684835368018485E9, 0.0, 2023-05-23 11:49:28.018
115.0, 13679.781696770395, 7009.574116417661, 25173.205157900473, -5131.424085071574, 27515.802087283384, 23677.292308484593, 21331.812004066946, 2642.8926161399622, 0.006, -0.014, 0.974, 192.0, 0.0, 0.0, 0.0, 0.0, 0.0, 0.0, 0.0, 0.0, 0.0, 1.684835368018488E9, 0.0, 2023-05-23 11:49:28.018
116.0, 13665.074248918801, 6996.028959277744, 25166.7902072418, -5159.274358662887, 27535.136346237225, 23673.760732860654, 21341.535012905006, 2652.5709214891103, 0.006, -0.014, 0.974, 192.0, 0.0, 0.0, 0.0, 0.0, 0.0, 0.0, 0.0, 0.0, 0.0, 1.684835368018492E9, 0.0, 2023-05-23 11:49:28.018
117.0, 13679.55817932584, 7008.076549539155, 25160.755236238867, -5154.289919649354, 27524.78748855442, 23663.188357733296, 21334.18128897921, 2640.098648083049, 0.006, -0.014, 0.974, 192.0, 0.0, 0.0, 0.0, 0.0, 0.0, 0.0, 0.0, 0.0, 0.0, 1.684835368018497E9, 0.0, 2023-05-23 11:49:28.018
118.0, 13688.878856763704, 7015.519680442772, 25159.88351820511, -5150.490123091951, 27494.277357372925, 23659.701485598267, 21324.771204563523, 2633.9519183578395, 0.006, -0.014, 0.974, 192.0, 0.0, 0.0, 0.0, 0.0, 0.0, 0.0, 0.0, 0.0, 0.0, 1.684835368018501E9, 0.0, 2023-05-23 11:49:28.018
119.0, 13684.028528216902, 7011.652828652004, 25175.954422468476, -5134.799198484326, 27513.11987794875, 23662.718971099734, 21334.762434335047, 2649.0840493540823, 0.006, -0.012, 0.97, 192.0, 0.0, 48.0, 255.0, 160.0, 30.0, 80.0, 0.0, 0.0, 0.0, 1.684835368018506E9, 0.0, 2023-05-23 11:49:28.018
120.0, 13680.407545615142, 7007.2942384832195, 25174.523910823336, -5132.228747871965, 27514.68450006062, 23667.390485690892, 21322.133698717797, 2636.3435550145573, 0.006, -0.012, 0.97, 192.0, 0.0, 0.0, 0.0, 0.0, 0.0, 0.0, 0.0, 0.0, 0.0, 1.68483536801851E9, 0.0, 2023-05-23 11:49:28.018
121.0, 13676.943025224571, 7005.059064037689, 25174.009820700863, -5147.696155035038, 27544.79229984192, 23671.547910159577, 21337.243477969587, 2653.129715100493, 0.006, -0.012, 0.97, 192.0, 0.0, 0.0, 0.0, 0.0, 0.0, 0.0, 0.0, 0.0, 0.0, 1.68483536807854E9, 0.0, 2023-05-23 11:49:28.078
122.0, 13686.04018521788, 7012.055160052199, 25166.678448519524, -5162.9847482424675, 27540.00902652848, 23675.995907306184, 21341.17738499372, 2660.9528256598505, 0.006, -0.012, 0.97, 192.0, 0.0, 0.0, 0.0, 0.0, 0.0, 0.0, 0.0, 0.0, 0.0, 1.684835368078549E9, 0.0, 2023-05-23 11:49:28.078
123.0, 13686.867199762726, 7013.955058330901, 25159.16826238254, -5161.68834706406, 27507.084906945816, 23672.710200871254, 21327.296951686974, 2654.9178546569174, 0.006, -0.012, 0.97, 192.0, 0.0, 0.0, 0.0, 0.0, 0.0, 0.0, 0.0, 0.0, 0.0, 1.684835368078552E9, 0.0, 2023-05-23 11:49:28.078
124.0, 13682.173333427112, 7011.853994352102, 25173.898061978587, -5127.467826302985, 27524.340453665314, 23678.63341315191, 21334.248344212574, 2660.550494259655, 0.006, -0.012, 0.97, 192.0, 0.0, 0.0, 0.0, 0.0, 0.0, 0.0, 0.0, 0.0, 0.0, 1.684835368078556E9, 0.0, 2023-05-23 11:49:28.078
125.0, 13675.624272301708, 7007.33894197213, 25175.865015490654, -5143.4940270774405, 27522.52996236443, 23678.745171874187, 21316.0316724815, 2646.781819675186, 0.006, -0.012, 0.97, 192.0, 0.0, 0.0, 0.0, 0.0, 0.0, 0.0, 0.0, 0.0, 0.0, 1.684835368078559E9, 0.0, 2023-05-23 11:49:28.078
126.0, 13675.713679279528, 7003.427386692451, 25169.762989254355, -5150.087791691755, 27539.696102106107, 23669.916232814343, 21322.06664348443, 2654.649633723454, 0.006, -0.012, 0.97, 192.0, 0.0, 0.0, 0.0, 0.0, 0.0, 0.0, 0.0, 0.0, 0.0, 1.684835368078562E9, 0.0, 2023-05-23 11:49:28.078
127.0, 13681.636891560185, 7009.037674550734, 25160.97875368342, -5152.434724859563, 27535.06929100386, 23657.667476852832, 21330.850879055368, 2651.319223799613, 0.006, -0.012, 0.97, 192.0, 0.0, 0.0, 0.0, 0.0, 0.0, 0.0, 0.0, 0.0, 0.0, 1.684835368078565E9, 0.0, 2023-05-23 11:49:28.078
128.0, 13686.218999173523, 7017.15135778801, 25161.872823461632, -5148.701983535527, 27511.73406979252, 23654.62763960691, 21324.279466185508, 2643.943148129362, 0.006, -0.012, 0.97, 192.0, 0.0, 0.0, 0.0, 0.0, 0.0, 0.0, 0.0, 0.0, 0.0, 1.684835368078594E9, 0.0, 2023-05-23 11:49:28.078
129.0, 13685.61550207323, 7017.7995583772135, 25177.630803302625, -5137.548463052329, 27523.53579086492, 23660.55085188757, 21330.806175566457, 2646.2677295527137, 0.004, -0.014, 0.966, 192.0, 0.0, 32.0, 255.0, 144.0, 30.0, 48.0, 0.0, 0.0, 0.0, 1.684835368078599E9, 0.0, 2023-05-23 11:49:28.078
130.0, 13684.833191017295, 7017.173709532465, 25182.54818708279, -5128.518358292385, 27524.854543787784, 23679.30396548557, 21325.88879178629, 2644.233720807281, 0.004, -0.014, 0.966, 192.0, 0.0, 0.0, 0.0, 0.0, 0.0, 0.0, 0.0, 0.0, 0.0, 1.684835368078604E9, 0.0, 2023-05-23 11:49:28.078
131.0, 13684.90024625066, 7012.144567030021, 25180.35771612617, -5131.088808904745, 27547.608619643288, 23680.175683519326, 21335.768262835536, 2664.5738082616103, 0.004, -0.014, 0.966, 192.0, 0.0, 0.0, 0.0, 0.0, 0.0, 0.0, 0.0, 0.0, 0.0, 1.684835368078607E9, 0.0, 2023-05-23 11:49:28.078
132.0, 13683.827362516806, 7008.858860595091, 25162.766893239845, -5146.466809089996, 27537.416224171666, 23669.44684618078, 21337.735216347603, 2671.3016833426577, 0.004, -0.014, 0.966, 192.0, 0.0, 0.0, 0.0, 0.0, 0.0, 0.0, 0.0, 0.0, 0.0, 1.68483536807861E9, 0.0, 2023-05-23 11:49:28.078
133.0, 13689.95174049756, 7019.028904322256, 25162.856300217667, -5142.331736365764, 27503.240406899502, 23675.481817183714, 21326.22406795312, 2661.846895438063, 0.004, -0.014, 0.966, 192.0, 0.0, 0.0, 0.0, 0.0, 0.0, 0.0, 0.0, 0.0, 0.0, 1.684835368078614E9, 0.0, 2023-05-23 11:49:28.078
134.0, 13684.60967357274, 7014.96088683139, 25175.46268409046, -5133.838073472747, 27513.87983726023, 23681.472084697736, 21330.582658121904, 2663.322110572113, 0.004, -0.014, 0.966, 192.0, 0.0, 0.0, 0.0, 0.0, 0.0, 0.0, 0.0, 0.0, 0.0, 1.684835368078617E9, 0.0, 2023-05-23 11:49:28.078
135.0, 13676.585397313285, 7007.093072783122, 25172.10992242216, -5145.63979454515, 27513.67867156013, 23678.63341315191, 21322.737195818092, 2653.576749989599, 0.004, -0.014, 0.966, 192.0, 0.0, 0.0, 0.0, 0.0, 0.0, 0.0, 0.0, 0.0, 0.0, 1.68483536807862E9, 0.0, 2023-05-23 11:49:28.078
136.0, 13671.645661788663, 7002.57802040315, 25168.64540203159, -5138.040201430345, 27539.53963989492, 23673.425456693825, 21328.07926274291, 2665.9819681622944, 0.004, -0.014, 0.966, 192.0, 0.0, 0.0, 0.0, 0.0, 0.0, 0.0, 0.0, 0.0, 0.0, 1.684835368138912E9, 0.0, 2023-05-23 11:49:28.138
137.0, 13677.926501980604, 7007.540107672228, 25159.615297271648, -5139.202492142021, 27534.085814247825, 23664.283593211603, 21324.413576652238, 2661.0422326376715, 0.004, -0.014, 0.966, 192.0, 0.0, 0.0, 0.0, 0.0, 0.0, 0.0, 0.0, 0.0, 0.0, 1.684835368138923E9, 0.0, 2023-05-23 11:49:28.138
138.0, 13686.621330573718, 7014.826776364658, 25160.062332160753, -5141.817646243292, 27492.802142238874, 23671.726724115222, 21324.07830048541, 2663.6350349944873, 0.004, -0.014, 0.966, 192.0, 0.0, 0.0, 0.0, 0.0, 0.0, 0.0, 0.0, 0.0, 0.0, 1.684835368138928E9, 0.0, 2023-05-23 11:49:28.138
139.0, 13681.413374115631, 7009.4623576953845, 25171.349963110682, -5137.6825735190605, 27505.989671467505, 23677.426418951323, 21332.191983722685, 2672.19575312087, 0.006, -0.008, 0.97, 192.0, 0.0, 48.0, 255.0, 192.0, 30.0, 80.0, 0.0, 0.0, 0.0, 1.684835368138932E9, 0.0, 2023-05-23 11:49:28.138
140.0, 13681.458077604542, 7008.165956516977, 25173.383971856114, -5128.808930970304, 27509.83417151382, 23677.605232906968, 21324.16770746323, 2659.9246454149065, 0.006, -0.008, 0.97, 192.0, 0.0, 0.0, 0.0, 0.0, 0.0, 0.0, 0.0, 0.0, 0.0, 1.684835368138937E9, 0.0, 2023-05-23 11:49:28.138
141.0, 13672.807952500338, 6998.107671512088, 25168.332477609216, -5138.643698530638, 27535.292808448412, 23676.39823870638, 21327.900448787266, 2665.4678780398226, 0.006, -0.008, 0.97, 192.0, 0.0, 0.0, 0.0, 0.0, 0.0, 0.0, 0.0, 0.0, 0.0, 1.684835368138941E9, 0.0, 2023-05-23 11:49:28.138
142.0, 13680.921635737615, 7008.635343150538, 25163.728018251422, -5139.1130851642, 27540.79133758442, 23678.45459919627, 21326.827565053412, 2660.3269768151017, 0.006, -0.008, 0.97, 192.0, 0.0, 0.0, 0.0, 0.0, 0.0, 0.0, 0.0, 0.0, 0.0, 1.684835368138946E9, 0.0, 2023-05-23 11:49:28.138
143.0, 13692.633949832196, 7023.275735768764, 25168.086608420206, -5130.239442615443, 27503.910959233162, 23681.852064353476, 21311.918951501724, 2644.5913487185658, 0.006, -0.008, 0.97, 192.0, 0.0, 0.0, 0.0, 0.0, 0.0, 0.0, 0.0, 0.0, 0.0, 1.68483536813895E9, 0.0, 2023-05-23 11:49:28.138
144.0, 13691.002272486958, 7020.370008989574, 25180.98356497092, -5127.8254542142695, 27510.5941308253, 23683.506093443168, 21337.757568092056, 2674.5873897775878, 0.006, -0.008, 0.97, 192.0, 0.0, 0.0, 0.0, 0.0, 0.0, 0.0, 0.0, 0.0, 0.0, 1.684835368138955E9, 0.0, 2023-05-23 11:49:28.138
145.0, 13689.571760841818, 7014.536203686739, 25183.777533027835, -5120.58348901075, 27528.855506045285, 23682.857892853965, 21348.441701941694, 2686.880849228007, 0.006, -0.008, 0.97, 192.0, 0.0, 0.0, 0.0, 0.0, 0.0, 0.0, 0.0, 0.0, 0.0, 1.684835368138959E9, 0.0, 2023-05-23 11:49:28.138
146.0, 13681.94981598256, 7005.90843032699, 25182.011745215863, -5103.663218458083, 27551.16254701168, 23678.87928234092, 21352.062684543453, 2690.546535318677, 0.006, -0.008, 0.97, 192.0, 0.0, 0.0, 0.0, 0.0, 0.0, 0.0, 0.0, 0.0, 0.0, 1.684835368138963E9, 0.0, 2023-05-23 11:49:28.138
147.0, 13687.716566052028, 7013.239802508331, 25165.449102574483, -5117.141320364633, 27529.16843046766, 23661.98136353271, 21336.28235295801, 2664.685566983887, 0.006, -0.008, 0.97, 192.0, 0.0, 0.0, 0.0, 0.0, 0.0, 0.0, 0.0, 0.0, 0.0, 1.684835368138968E9, 0.0, 2023-05-23 11:49:28.138
148.0, 13694.645606833174, 7020.839395623136, 25160.55407053877, -5133.323983350276, 27486.521302046935, 23659.790892576086, 21317.328073659908, 2639.8304271495854, 0.006, -0.008, 0.97, 192.0, 0.0, 0.0, 0.0, 0.0, 0.0, 0.0, 0.0, 0.0, 0.0, 1.684835368138972E9, 0.0, 2023-05-23 11:49:28.138
149.0, 13698.311292923843, 7026.516738714784, 25182.5928905717, -5107.015980126379, 27498.09950567478, 23675.54887241708, 21340.93151580471, 2675.3473490890683, 0.006, -0.006, 0.97, 192.0, 0.0, 48.0, 255.0, 208.0, 30.0, 80.0, 0.0, 0.0, 0.0, 1.684835368138977E9, 0.0, 2023-05-23 11:49:28.138
150.0, 13690.734051553494, 7018.470110710873, 25183.956346983476, -5114.660276730094, 27507.196665668092, 23686.948262089285, 21343.07728327242, 2681.1140991585376, 0.006, -0.006, 0.97, 192.0, 0.0, 0.0, 0.0, 0.0, 0.0, 0.0, 0.0, 0.0, 0.0, 1.684835368139003E9, 0.0, 2023-05-23 11:49:28.139
151.0, 13677.658281047141, 7001.1922122469205, 25173.138102667108, -5147.249120145932, 27542.11009050728, 23682.187340520304, 21354.007286311065, 2692.446433597378, 0.006, -0.006, 0.97, 192.0, 0.0, 0.0, 0.0, 0.0, 0.0, 0.0, 0.0, 0.0, 0.0, 1.684835368197802E9, 0.0, 2023-05-23 11:49:28.197
152.0, 13685.503743350953, 7010.803462362703, 25161.492843805892, -5147.360878868209, 27534.421090414657, 23680.44390445279, 21354.856652600367, 2691.9546952193614, 0.006, -0.006, 0.97, 192.0, 0.0, 0.0, 0.0, 0.0, 0.0, 0.0, 0.0, 0.0, 0.0, 1.68483536819782E9, 0.0, 2023-05-23 11:49:28.197
153.0, 13690.398775386666, 7018.693628155426, 25160.26349786085, -5146.802085256825, 27490.991650937995, 23678.00756430716, 21338.472823914628, 2675.6379217669873, 0.006, -0.006, 0.97, 192.0, 0.0, 0.0, 0.0, 0.0, 0.0, 0.0, 0.0, 0.0, 0.0, 1.684835368197825E9, 0.0, 2023-05-23 11:49:28.197
154.0, 13681.189856671079, 7010.982276318345, 25173.898061978587, -5132.854596716714, 27505.587340067308, 23675.481817183714, 21344.70896061766, 2684.511564315744, 0.006, -0.006, 0.97, 192.0, 0.0, 0.0, 0.0, 0.0, 0.0, 0.0, 0.0, 0.0, 0.0, 1.68483536819783E9, 0.0, 2023-05-23 11:49:28.197
155.0, 13672.27151063341, 7003.494441925817, 25174.45685558997, -5147.807913757314, 27510.77294478094, 23678.00756430716, 21342.9878762946, 2682.969293948328, 0.006, -0.006, 0.97, 192.0, 0.0, 0.0, 0.0, 0.0, 0.0, 0.0, 0.0, 0.0, 0.0, 1.684835368197835E9, 0.0, 2023-05-23 11:49:28.197
156.0, 13669.969280954514, 7003.270924481264, 25175.149759668086, -5149.216073657999, 27538.332645694336, 23679.907462585863, 21351.481539187615, 2697.0508929551715, 0.006, -0.006, 0.97, 192.0, 0.0, 0.0, 0.0, 0.0, 0.0, 0.0, 0.0, 0.0, 0.0, 1.684835368197838E9, 0.0, 2023-05-23 11:49:28.197
157.0, 13667.331775108789, 7003.382683203541, 25160.375256583127, -5133.502797305918, 27534.26462820347, 23673.31369797155, 21345.804196095967, 2686.567924805632, 0.006, -0.006, 0.97, 192.0, 0.0, 0.0, 0.0, 0.0, 0.0, 0.0, 0.0, 0.0, 0.0, 1.684835368197842E9, 0.0, 2023-05-23 11:49:28.197
158.0, 13682.486257849487, 7015.184404275943, 25158.74357923789, -5130.530015293362, 27497.272491129937, 23677.11349452895, 21330.605009866358, 2667.546590274166, 0.006, -0.006, 0.97, 192.0, 0.0, 0.0, 0.0, 0.0, 0.0, 0.0, 0.0, 0.0, 0.0, 1.684835368197845E9, 0.0, 2023-05-23 11:49:28.197
159.0, 13686.889551507182, 7018.470110710873, 25179.843626003698, -5126.596108269227, 27514.572741338343, 23686.903558600374, 21340.395073937783, 2680.8682299695292, 0.002, -0.006, 0.97, 192.0, 0.0, 16.0, 255.0, 208.0, 30.0, 80.0, 0.0, 0.0, 0.0, 1.684835368197849E9, 0.0, 2023-05-23 11:49:28.197
160.0, 13687.85067651876, 7014.446796708918, 25183.732829538923, -5128.652468759116, 27518.77486929594, 23684.82484636603, 21336.304704702463, 2679.035386924194, 0.002, -0.006, 0.97, 192.0, 0.0, 0.0, 0.0, 0.0, 0.0, 0.0, 0.0, 0.0, 0.0, 1.684835368197853E9, 0.0, 2023-05-23 11:49:28.197
161.0, 13674.774906012406, 7000.566363402172, 25178.54722482529, -5133.391038583642, 27527.648511844698, 23677.761695118155, 21350.743931620593, 2698.9507912338727, 0.002, -0.006, 0.97, 192.0, 0.0, 0.0, 0.0, 0.0, 0.0, 0.0, 0.0, 0.0, 0.0, 1.684835368197857E9, 0.0, 2023-05-23 11:49:28.197
162.0, 13676.495990335465, 7003.159165758988, 25162.45396881747, -5146.735030023459, 27515.802087283384, 23671.45850318176, 21345.357161206863, 2691.328846374613, 0.002, -0.006, 0.97, 192.0, 0.0, 0.0, 0.0, 0.0, 0.0, 0.0, 0.0, 0.0, 0.0, 1.684835368197877E9, 0.0, 2023-05-23 11:49:28.197
163.0, 13674.886664734682, 7003.315627970175, 25154.854375702667, -5146.7797335123705, 27480.86631069974, 23669.670363625333, 21331.387320922295, 2671.234628109292, 0.002, -0.006, 0.97, 192.0, 0.0, 0.0, 0.0, 0.0, 0.0, 0.0, 0.0, 0.0, 0.0, 1.684835368197881E9, 0.0, 2023-05-23 11:49:28.197
164.0, 13667.868216975716, 7001.125157013555, 25166.5890415417, -5135.469750817985, 27499.4406103421, 23673.5372154161, 21340.350370448872, 2677.5825235345987, 0.002, -0.006, 0.97, 192.0, 0.0, 0.0, 0.0, 0.0, 0.0, 0.0, 0.0, 0.0, 0.0, 1.684835368197886E9, 0.0, 2023-05-23 11:49:28.197
165.0, 13670.952757710547, 7002.667427380971, 25168.757160753867, -5129.63594551515, 27501.78754350991, 23678.476950940723, 21332.393149422784, 2661.198694848859, 0.002, -0.006, 0.97, 192.0, 0.0, 0.0, 0.0, 0.0, 0.0, 0.0, 0.0, 0.0, 0.0, 1.68483536819789E9, 0.0, 2023-05-23 11:49:28.197
166.0, 13666.594167541763, 6995.961904044379, 25167.192538641997, -5140.2083206425095, 27523.91577052066, 23676.286479984105, 21345.379512951316, 2677.359006090046, 0.002, -0.006, 0.97, 192.0, 0.0, 0.0, 0.0, 0.0, 0.0, 0.0, 0.0, 0.0, 0.0, 1.684835368258083E9, 0.0, 2023-05-23 11:49:28.258
167.0, 13670.75159201045, 7000.186383746432, 25157.335419337207, -5138.934271208557, 27523.02170074245, 23667.68105836881, 21344.194870495186, 2677.4707648123226, 0.002, -0.006, 0.97, 192.0, 0.0, 0.0, 0.0, 0.0, 0.0, 0.0, 0.0, 0.0, 0.0, 1.684835368258098E9, 0.0, 2023-05-23 11:49:28.258
168.0, 13702.08873773679, 7028.3048782712085, 25166.857262475165, -5098.164689322078, 27486.81187472485, 23661.087293754495, 21319.205620194152, 2645.5301219856888, 0.002, -0.006, 0.97, 192.0, 0.0, 0.0, 0.0, 0.0, 0.0, 0.0, 0.0, 0.0, 0.0, 1.684835368258103E9, 0.0, 2023-05-23 11:49:28.258
169.0, 13697.350167912266, 7025.108578814099, 25190.773629042345, -5119.376494810163, 27508.694232546597, 23668.619831635933, 21335.388283179796, 2658.225912836303, 0.002, -0.012, 0.976, 192.0, 0.0, 16.0, 255.0, 160.0, 30.0, 128.0, 0.0, 0.0, 0.0, 1.684835368258108E9, 0.0, 2023-05-23 11:49:28.258
170.0, 13678.060612447336, 7004.947305315412, 25184.8951202506, -5131.7593612384035, 27515.511514605467, 23687.127076044926, 21348.866385086345, 2683.0810526706045, 0.002, -0.012, 0.976, 192.0, 0.0, 0.0, 0.0, 0.0, 0.0, 0.0, 0.0, 0.0, 0.0, 1.684835368258112E9, 0.0, 2023-05-23 11:49:28.258
171.0, 13680.072269448314, 7005.550802415705, 25183.710477794466, -5131.893471705136, 27533.50466889199, 23697.140657560907, 21363.1938532822, 2713.188852451903, 0.002, -0.012, 0.976, 192.0, 0.0, 0.0, 0.0, 0.0, 0.0, 0.0, 0.0, 0.0, 0.0, 1.684835368258137E9, 0.0, 2023-05-23 11:49:28.258
172.0, 13698.28894117939, 7022.001686334812, 25178.92720448103, -5136.54263455184, 27523.82636354284, 23691.77623889163, 21359.125835791332, 2712.25007918478, 0.002, -0.012, 0.976, 192.0, 0.0, 0.0, 0.0, 0.0, 0.0, 0.0, 0.0, 0.0, 0.0, 1.68483536825814E9, 0.0, 2023-05-23 11:49:28.258
173.0, 13709.353054684765, 7032.261137039797, 25178.54722482529, -5129.591242026239, 27487.705944503065, 23684.40016322138, 21337.51169890305, 2682.745776503775, 0.002, -0.012, 0.976, 192.0, 0.0, 0.0, 0.0, 0.0, 0.0, 0.0, 0.0, 0.0, 0.0, 1.684835368258144E9, 0.0, 2023-05-23 11:49:28.258
174.0, 13714.605714631763, 7038.96666037639, 25203.067088492764, -5119.711770976994, 27508.716584291054, 23686.233006266717, 21342.9878762946, 2683.3045701151577, 0.002, -0.012, 0.976, 192.0, 0.0, 0.0, 0.0, 0.0, 0.0, 0.0, 0.0, 0.0, 0.0, 1.684835368258148E9, 0.0, 2023-05-23 11:49:28.258
175.0, 13711.029435518914, 7036.753837675315, 25207.358623428183, -5126.618460013683, 27504.000366210985, 23690.681003413323, 21336.59527738038, 2683.0587009261494, 0.002, -0.012, 0.976, 192.0, 0.0, 0.0, 0.0, 0.0, 0.0, 0.0, 0.0, 0.0, 0.0, 1.684835368258151E9, 0.0, 2023-05-23 11:49:28.258
176.0, 13708.414281417643, 7030.808273650203, 25207.69389959501, -5132.20639612751, 27522.440555386613, 23694.525503459634, 21346.877079829825, 2700.850689512574, 0.002, -0.012, 0.976, 192.0, 0.0, 0.0, 0.0, 0.0, 0.0, 0.0, 0.0, 0.0, 0.0, 1.684835368258154E9, 0.0, 2023-05-23 11:49:28.258
177.0, 13714.873935565227, 7037.804369664714, 25197.61326284567, -5132.8098932278035, 27519.378366396235, 23690.904520857875, 21343.479614672615, 2695.575677821121, 0.002, -0.012, 0.976, 192.0, 0.0, 0.0, 0.0, 0.0, 0.0, 0.0, 0.0, 0.0, 0.0, 1.684835368258158E9, 0.0, 2023-05-23 11:49:28.258
178.0, 13719.76896760094, 7046.29803255773, 25192.56176859877, -5134.553329295317, 27488.24238636999, 23683.886073098907, 21331.588486622393, 2682.4999073147665, 0.002, -0.012, 0.976, 192.0, 0.0, 0.0, 0.0, 0.0, 0.0, 0.0, 0.0, 0.0, 0.0, 1.684835368258161E9, 0.0, 2023-05-23 11:49:28.258
179.0, 13709.464813407043, 7035.613898708093, 25206.50925713888, -5111.1510528506105, 27508.269549401946, 23683.77431437663, 21339.724521604126, 2692.804061508663, 0.006, -0.014, 0.976, 192.0, 0.0, 48.0, 255.0, 144.0, 30.0, 128.0, 0.0, 0.0, 0.0, 1.684835368258165E9, 0.0, 2023-05-23 11:49:28.258
180.0, 13697.774851056916, 7024.348619502619, 25204.519951882357, -5124.763265223893, 27514.662148316165, 23684.333107988015, 21344.485443173104, 2689.3618928625456, 0.006, -0.014, 0.976, 192.0, 0.0, 0.0, 0.0, 0.0, 0.0, 0.0, 0.0, 0.0, 0.0, 1.684835368258168E9, 0.0, 2023-05-23 11:49:28.258
181.0, 13700.367653413732, 7026.695552670426, 25205.86105654968, -5137.526111307873, 27527.06736648886, 23683.77431437663, 21350.27454498703, 2695.978009221317, 0.006, -0.014, 0.976, 192.0, 0.0, 0.0, 0.0, 0.0, 0.0, 0.0, 0.0, 0.0, 0.0, 1.684835368318317E9, 0.0, 2023-05-23 11:49:28.318
182.0, 13699.89826678017, 7024.840357880636, 25191.488884864913, -5140.63300378716, 27518.081965217825, 23678.722820129733, 21343.904297817266, 2690.0547969406603, 0.006, -0.014, 0.976, 192.0, 0.0, 0.0, 0.0, 0.0, 0.0, 0.0, 0.0, 0.0, 0.0, 1.684835368318333E9, 0.0, 2023-05-23 11:49:28.318
183.0, 13707.85548780626, 7033.557538218205, 25186.012707473365, -5132.832244972258, 27486.76717123594, 23680.913291086352, 21334.091882001387, 2678.2083723793476, 0.006, -0.014, 0.976, 192.0, 0.0, 0.0, 0.0, 0.0, 0.0, 0.0, 0.0, 0.0, 0.0, 1.684835368318337E9, 0.0, 2023-05-23 11:49:28.318
184.0, 13704.189801715589, 7030.3612387610965, 25202.105963481186, -5125.009134412901, 27503.754497021975, 23691.128038302428, 21341.624419882824, 2686.165593405437, 0.006, -0.014, 0.976, 192.0, 0.0, 0.0, 0.0, 0.0, 0.0, 0.0, 0.0, 0.0, 0.0, 1.684835368318341E9, 0.0, 2023-05-23 11:49:28.318
185.0, 13697.2831126789, 7021.085264812144, 25197.970890756955, -5135.737971751449, 27505.408526111667, 23692.804419136577, 21333.13075698981, 2675.257942111247, 0.006, -0.014, 0.976, 192.0, 0.0, 0.0, 0.0, 0.0, 0.0, 0.0, 0.0, 0.0, 0.0, 1.684835368318344E9, 0.0, 2023-05-23 11:49:28.318
186.0, 13698.579513857308, 7022.828700879658, 25199.69197508001, -5137.6825735190605, 27520.764174552463, 23695.330166260024, 21341.870289071834, 2694.033407453705, 0.006, -0.014, 0.976, 192.0, 0.0, 0.0, 0.0, 0.0, 0.0, 0.0, 0.0, 0.0, 0.0, 1.684835368318348E9, 0.0, 2023-05-23 11:49:28.318
187.0, 13707.453156406065, 7029.6012794496155, 25192.047678476298, -5126.506701291407, 27522.48525887552, 23694.592558693, 21351.481539187615, 2703.577602336121, 0.006, -0.014, 0.976, 192.0, 0.0, 0.0, 0.0, 0.0, 0.0, 0.0, 0.0, 0.0, 0.0, 1.684835368318351E9, 0.0, 2023-05-23 11:49:28.318
188.0, 13718.740787355995, 7042.319422044686, 25191.868864520653, -5123.355105323209, 27490.991650937995, 23690.72570690223, 21343.501966417072, 2691.798233008174, 0.006, -0.014, 0.976, 192.0, 0.0, 0.0, 0.0, 0.0, 0.0, 0.0, 0.0, 0.0, 0.0, 1.684835368318355E9, 0.0, 2023-05-23 11:49:28.318
189.0, 13705.799127316372, 7034.384552763052, 25201.681280336536, -5125.836148957747, 27497.943043463594, 23680.980346319717, 21349.84986184238, 2693.2734481422244, 0.004, -0.012, 0.974, 192.0, 0.0, 32.0, 255.0, 160.0, 30.0, 112.0, 0.0, 0.0, 0.0, 1.684835368318358E9, 0.0, 2023-05-23 11:49:28.318
190.0, 13702.491069136986, 7030.517700972284, 25199.93784426902, -5109.631134227649, 27502.97218596604, 23682.097933542485, 21344.8877745733, 2687.10436667256, 0.004, -0.012, 0.974, 192.0, 0.0, 0.0, 0.0, 0.0, 0.0, 0.0, 0.0, 0.0, 0.0, 1.684835368318362E9, 0.0, 2023-05-23 11:49:28.318
191.0, 13699.630045846707, 7022.649886924016, 25191.578291842736, -5121.857538444703, 27517.25495067298, 23687.4400004673, 21346.452396685174, 2696.4697475993335, 0.004, -0.012, 0.974, 192.0, 0.0, 0.0, 0.0, 0.0, 0.0, 0.0, 0.0, 0.0, 0.0, 1.684835368318365E9, 0.0, 2023-05-23 11:49:28.318
192.0, 13700.032377246902, 7024.393322991529, 25177.809617258266, -5135.916785707091, 27514.796258782895, 23686.03184056662, 21335.678855857714, 2685.1150614160374, 0.004, -0.012, 0.974, 192.0, 0.0, 0.0, 0.0, 0.0, 0.0, 0.0, 0.0, 0.0, 0.0, 1.684835368318401E9, 0.0, 2023-05-23 11:49:28.318
193.0, 13717.578496644319, 7040.754799932814, 25183.442256861003, -5129.9935734264345, 27478.16174962065, 23679.907462585863, 21321.619608595327, 2664.327939072602, 0.004, -0.012, 0.974, 192.0, 0.0, 0.0, 0.0, 0.0, 0.0, 0.0, 0.0, 0.0, 0.0, 1.684835368318405E9, 0.0, 2023-05-23 11:49:28.318
194.0, 13714.80688033186, 7037.737314431348, 25202.061259992275, -5126.417294313585, 27498.613595797255, 23686.590634178, 21341.35619894936, 2691.731177774808, 0.004, -0.012, 0.974, 192.0, 0.0, 0.0, 0.0, 0.0, 0.0, 0.0, 0.0, 0.0, 0.0, 1.684835368318408E9, 0.0, 2023-05-23 11:49:28.318
195.0, 13716.684426866106, 7041.2241865663755, 25208.722079839958, -5114.593221496728, 27503.352165621778, 23698.191189550304, 21348.59816415288, 2701.4094831239563, 0.004, -0.012, 0.974, 192.0, 0.0, 0.0, 0.0, 0.0, 0.0, 0.0, 0.0, 0.0, 0.0, 1.684835368318411E9, 0.0, 2023-05-23 11:49:28.318
196.0, 13713.801051831371, 7038.63138420956, 25208.31974843976, -5116.895451175625, 27515.667976816654, 23699.800515151088, 21354.9907630671, 2711.7583408067635, 0.004, -0.012, 0.974, 192.0, 0.0, 0.0, 0.0, 0.0, 0.0, 0.0, 0.0, 0.0, 0.0, 1.684835368378662E9, 0.0, 2023-05-23 11:49:28.378
197.0, 13705.32974068281, 7028.930727115957, 25191.04184997581, -5130.909994949102, 27516.137363450216, 23690.703355157777, 21358.522338691037, 2710.9536780063722, 0.004, -0.012, 0.974, 192.0, 0.0, 0.0, 0.0, 0.0, 0.0, 0.0, 0.0, 0.0, 0.0, 1.68483536837868E9, 0.0, 2023-05-23 11:49:28.378
198.0, 13707.363749428243, 7031.121198072577, 25182.995221971898, -5123.153939623111, 27483.280299100912, 23680.890939341898, 21343.770187350536, 2686.255000383258, 0.004, -0.012, 0.974, 192.0, 0.0, 0.0, 0.0, 0.0, 0.0, 0.0, 0.0, 0.0, 0.0, 1.684835368378684E9, 0.0, 2023-05-23 11:49:28.378
199.0, 13712.303484952867, 7034.317497529686, 25198.999071001897, -5113.430930785052, 27495.19377889559, 23679.706296885764, 21353.426140955227, 2691.10532893006, 0.004, -0.012, 0.976, 192.0, 0.0, 32.0, 255.0, 160.0, 30.0, 128.0, 0.0, 0.0, 0.0, 1.684835368378688E9, 0.0, 2023-05-23 11:49:28.378
200.0, 13712.705816353062, 7034.7645324187915, 25204.005861759888, -5109.474672016463, 27506.235540656515, 23684.333107988015, 21347.011190296555, 2684.9809509493057, 0.004, -0.012, 0.976, 192.0, 0.0, 0.0, 0.0, 0.0, 0.0, 0.0, 0.0, 0.0, 0.0, 1.684835368378692E9, 0.0, 2023-05-23 11:49:28.378
201.0, 13694.80206904436, 7020.995857834323, 25192.785286043323, -5115.86727093068, 27516.226770428035, 23680.957994575263, 21345.64773388478, 2680.778822991708, 0.004, -0.012, 0.976, 192.0, 0.0, 0.0, 0.0, 0.0, 0.0, 0.0, 0.0, 0.0, 0.0, 1.684835368378696E9, 0.0, 2023-05-23 11:49:28.378
202.0, 13701.015854002937, 7026.114407314588, 25179.418942859047, -5101.025712612357, 27509.83417151382, 23677.471122440234, 21338.1375477478, 2669.647654252965, 0.004, -0.012, 0.976, 192.0, 0.0, 0.0, 0.0, 0.0, 0.0, 0.0, 0.0, 0.0, 0.0, 1.6848353683787E9, 0.0, 2023-05-23 11:49:28.378
203.0, 13714.493955909486, 7036.977355119867, 25178.055486447276, -5121.388151811141, 27473.37847630721, 23682.321450987038, 21329.68858834369, 2664.842029195074, 0.004, -0.012, 0.976, 192.0, 0.0, 0.0, 0.0, 0.0, 0.0, 0.0, 0.0, 0.0, 0.0, 1.684835368378704E9, 0.0, 2023-05-23 11:49:28.378
204.0, 13703.47454589302, 7025.220337536376, 25191.667698820558, -5105.227840569954, 27489.516435803944, 23689.49636095719, 21346.050065284977, 2686.5902765500878, 0.004, -0.012, 0.976, 192.0, 0.0, 0.0, 0.0, 0.0, 0.0, 0.0, 0.0, 0.0, 0.0, 1.684835368378708E9, 0.0, 2023-05-23 11:49:28.378
205.0, 13703.586304615297, 7023.6110119355935, 25193.65700407708, -5112.5592127512955, 27496.043145184893, 23686.523578944634, 21338.763396592545, 2670.6981862423645, 0.004, -0.012, 0.976, 192.0, 0.0, 0.0, 0.0, 0.0, 0.0, 0.0, 0.0, 0.0, 0.0, 1.684835368378711E9, 0.0, 2023-05-23 11:49:28.378
206.0, 13699.294769679878, 7019.520642700272, 25192.785286043323, -5128.540710036839, 27504.82738075583, 23685.07071555504, 21346.631210640815, 2685.1150614160374, 0.004, -0.012, 0.976, 192.0, 0.0, 0.0, 0.0, 0.0, 0.0, 0.0, 0.0, 0.0, 0.0, 1.684835368378717E9, 0.0, 2023-05-23 11:49:28.378
207.0, 13710.336531440798, 7022.225203779364, 25182.928166738533, -5134.0615909173, 27503.955662722074, 23678.789875363098, 21348.888736830802, 2690.9488667188725, 0.004, -0.012, 0.976, 192.0, 0.0, 0.0, 0.0, 0.0, 0.0, 0.0, 0.0, 0.0, 0.0, 1.684835368378723E9, 0.0, 2023-05-23 11:49:28.378
208.0, 13713.264609964444, 7028.1931195489315, 25177.764913769355, -5138.710753764004, 27466.069455870325, 23675.39241020589, 21334.203640723663, 2670.8546484535514, 0.004, -0.012, 0.976, 192.0, 0.0, 0.0, 0.0, 0.0, 0.0, 0.0, 0.0, 0.0, 0.0, 1.684835368378728E9, 0.0, 2023-05-23 11:49:28.378
209.0, 13714.00221753147, 7034.071628340677, 25198.105001223685, -5133.435742072552, 27478.00528740946, 23681.31562248655, 21350.341600220396, 2686.322055616624, 0.004, -0.012, 0.976, 192.0, 0.0, 0.0, 0.0, 0.0, 0.0, 0.0, 0.0, 0.0, 0.0, 1.684835368378734E9, 0.0, 2023-05-23 11:49:28.378
210.0, 13706.067348249835, 7026.941421859435, 25200.295472180307, -5131.178215882566, 27481.358049077757, 23682.34380273149, 21343.636076883802, 2667.8595146965404, 0.002, -0.014, 0.98, 192.0, 0.0, 16.0, 255.0, 144.0, 30.0, 160.0, 0.0, 0.0, 0.0, 1.684835368378737E9, 0.0, 2023-05-23 11:49:28.378
211.0, 13703.608656359751, 7023.208680535398, 25194.685184322025, -5143.426971844074, 27495.506703317966, 23681.382677719914, 21345.55832690696, 2668.91004668594, 0.002, -0.014, 0.98, 192.0, 0.0, 0.0, 0.0, 0.0, 0.0, 0.0, 0.0, 0.0, 0.0, 1.684835368438932E9, 0.0, 2023-05-23 11:49:28.438
212.0, 13705.083871493802, 7024.907413114001, 25181.02826845983, -5133.681611261561, 27491.885720716207, 23680.198035263784, 21340.59623963788, 2669.267674597225, 0.002, -0.014, 0.98, 192.0, 0.0, 0.0, 0.0, 0.0, 0.0, 0.0, 0.0, 0.0, 0.0, 1.68483536843895E9, 0.0, 2023-05-23 11:49:28.438
213.0, 13708.682502351106, 7028.349581760119, 25175.999125957387, -5114.168538352077, 27468.259926826948, 23685.338936488504, 21330.582658121904, 2658.9858721477835, 0.002, -0.014, 0.98, 192.0, 0.0, 0.0, 0.0, 0.0, 0.0, 0.0, 0.0, 0.0, 0.0, 1.684835368438955E9, 0.0, 2023-05-23 11:49:28.438
214.0, 13706.626141861218, 7028.908375371501, 25191.377126142637, -5125.813797213292, 27483.325002589823, 23698.012375594662, 21349.13460601981, 2685.4279858384116, 0.002, -0.014, 0.98, 192.0, 0.0, 0.0, 0.0, 0.0, 0.0, 0.0, 0.0, 0.0, 0.0, 1.68483536843899E9, 0.0, 2023-05-23 11:49:28.438
215.0, 13702.021682503426, 7022.716942157382, 25189.83485577522, -5131.222919371477, 27487.124799147226, 23699.59934945099, 21351.03450429851, 2694.6592562984533, 0.002, -0.014, 0.98, 192.0, 0.0, 0.0, 0.0, 0.0, 0.0, 0.0, 0.0, 0.0, 0.0, 1.684835368438994E9, 0.0, 2023-05-23 11:49:28.438
216.0, 13689.169429441623, 7009.551764673205, 25179.79892251479, -5121.477558788963, 27497.138380663204, 23692.245625525193, 21357.27064100154, 2703.0858639581043, 0.002, -0.014, 0.98, 192.0, 0.0, 0.0, 0.0, 0.0, 0.0, 0.0, 0.0, 0.0, 0.0, 1.684835368438998E9, 0.0, 2023-05-23 11:49:28.438
217.0, 13691.89634226517, 7017.218413021375, 25173.60748930067, -5134.195701384032, 27490.589319537798, 23683.55079693208, 21356.287164245507, 2698.9507912338727, 0.002, -0.014, 0.98, 192.0, 0.0, 0.0, 0.0, 0.0, 0.0, 0.0, 0.0, 0.0, 0.0, 1.684835368439002E9, 0.0, 2023-05-23 11:49:28.439
218.0, 13709.911848296148, 7030.025962594267, 25175.55209106828, -5126.573756524773, 27457.933420888596, 23687.01531732265, 21349.738103120104, 2693.4299103534117, 0.002, -0.014, 0.98, 192.0, 0.0, 0.0, 0.0, 0.0, 0.0, 0.0, 0.0, 0.0, 0.0, 1.684835368439005E9, 0.0, 2023-05-23 11:49:28.439
219.0, 13703.89922903767, 7020.86174736759, 25188.35964064117, -5101.472747501462, 27471.545633261878, 23691.865645869453, 21357.89648984629, 2700.604820323565, 0.002, -0.014, 0.98, 192.0, 0.0, 0.0, 0.0, 0.0, 0.0, 0.0, 0.0, 0.0, 0.0, 1.684835368439009E9, 0.0, 2023-05-23 11:49:28.439
220.0, 13696.009063244946, 7013.440968208429, 25187.823198774244, -5114.168538352077, 27474.20549085206, 23692.06681156955, 21350.743931620593, 2688.3784161065123, 0.002, -0.016, 0.978, 192.0, 0.0, 16.0, 255.0, 128.0, 30.0, 144.0, 0.0, 0.0, 0.0, 1.684835368439012E9, 0.0, 2023-05-23 11:49:28.439
221.0, 13689.281188163899, 7009.238840250831, 25184.246919661397, -5134.5756810397725, 27493.83032248382, 23686.054192311072, 21351.638001398802, 2690.792404507685, 0.002, -0.016, 0.978, 192.0, 0.0, 0.0, 0.0, 0.0, 0.0, 0.0, 0.0, 0.0, 0.0, 1.684835368439015E9, 0.0, 2023-05-23 11:49:28.439
222.0, 13699.317121424332, 7016.0561223097, 25176.490864335403, -5135.246233373432, 27501.005232453972, 23685.540102188603, 21354.834300855913, 2689.160727162448, 0.002, -0.016, 0.978, 192.0, 0.0, 0.0, 0.0, 0.0, 0.0, 0.0, 0.0, 0.0, 0.0, 1.68483536843902E9, 0.0, 2023-05-23 11:49:28.439
223.0, 13710.940028541092, 7027.3661050040855, 25177.250823646882, -5126.484349546951, 27460.280354056402, 23684.60132892148, 21341.579716393917, 2679.5047735577555, 0.002, -0.016, 0.978, 192.0, 0.0, 0.0, 0.0, 0.0, 0.0, 0.0, 0.0, 0.0, 0.0, 1.684835368439024E9, 0.0, 2023-05-23 11:49:28.439
224.0, 13711.275304707922, 7030.785921905747, 25198.41792564606, -5116.560175008795, 27475.121912374725, 23687.171779533837, 21347.32411471893, 2691.4629568413447, 0.002, -0.016, 0.978, 192.0, 0.0, 0.0, 0.0, 0.0, 0.0, 0.0, 0.0, 0.0, 0.0, 1.684835368439027E9, 0.0, 2023-05-23 11:49:28.439
225.0, 13707.296694194878, 7029.981259105356, 25203.55882687078, -5123.668029745582, 27480.463979299544, 23691.17274179134, 21346.65356238527, 2691.798233008174, 0.002, -0.016, 0.978, 192.0, 0.0, 0.0, 0.0, 0.0, 0.0, 0.0, 0.0, 0.0, 0.0, 1.684835368439032E9, 0.0, 2023-05-23 11:49:28.439
226.0, 13696.836077789794, 7018.2689450107755, 25196.965062256466, -5135.849730473725, 27500.4911423315, 23698.72763141723, 21359.08113230242, 2710.573698350632, 0.002, -0.016, 0.978, 192.0, 0.0, 0.0, 0.0, 0.0, 0.0, 0.0, 0.0, 0.0, 0.0, 1.68483536849781E9, 0.0, 2023-05-23 11:49:28.497
227.0, 13708.079005250813, 7022.24755552382, 25186.280928406828, -5111.061645872789, 27506.324947634334, 23691.440962724802, 21359.23759451361, 2705.7904250371967, 0.002, -0.016, 0.978, 192.0, 0.0, 0.0, 0.0, 0.0, 0.0, 0.0, 0.0, 0.0, 0.0, 1.684835368497826E9, 0.0, 2023-05-23 11:49:28.497
228.0, 13720.305409467866, 7034.116331829588, 25185.07393420624, -5098.432910255541, 27469.981011150005, 23688.02114582314, 21342.205565238663, 2678.834221224096, 0.002, -0.016, 0.978, 192.0, 0.0, 0.0, 0.0, 0.0, 0.0, 0.0, 0.0, 0.0, 0.0, 1.684835368497831E9, 0.0, 2023-05-23 11:49:28.497
229.0, 13709.643627362684, 7025.622668936571, 25197.099172723196, -5114.660276730094, 27478.608784509754, 23687.417648722847, 21343.814890839447, 2680.1082706580487, 0.002, -0.016, 0.978, 192.0, 0.0, 0.0, 0.0, 0.0, 0.0, 0.0, 0.0, 0.0, 0.0, 1.684835368497836E9, 0.0, 2023-05-23 11:49:28.497
230.0, 13711.118842496735, 7029.444817238429, 25202.50829488138, -5124.293878590332, 27482.542691533887, 23688.177608034326, 21346.094768773888, 2682.745776503775, -0.002, -0.016, 0.978, 192.0, 255.0, 240.0, 255.0, 128.0, 30.0, 144.0, 0.0, 0.0, 0.0, 1.684835368497841E9, 0.0, 2023-05-23 11:49:28.497
231.0, 13710.38123492971, 7030.025962594267, 25201.860094292177, -5126.8866809471465, 27500.669956287144, 23687.998794078685, 21368.625327184836, 2715.4910821308, -0.002, -0.016, 0.978, 192.0, 0.0, 0.0, 0.0, 0.0, 0.0, 0.0, 0.0, 0.0, 0.0, 1.684835368497846E9, 0.0, 2023-05-23 11:49:28.497
232.0, 13706.983769772503, 7027.29904977072, 25186.973832484942, -5122.170462867077, 27505.028546455927, 23681.5391399311, 21367.91007136227, 2717.6144978540538, -0.002, -0.016, 0.978, 192.0, 0.0, 0.0, 0.0, 0.0, 0.0, 0.0, 0.0, 0.0, 0.0, 1.684835368497851E9, 0.0, 2023-05-23 11:49:28.497
233.0, 13709.040130262392, 7033.222262051376, 25181.274137648837, -5122.706904734005, 27466.069455870325, 23675.817093350543, 21342.920821061234, 2689.875982985018, -0.002, -0.016, 0.978, 192.0, 0.0, 0.0, 0.0, 0.0, 0.0, 0.0, 0.0, 0.0, 0.0, 1.684835368497856E9, 0.0, 2023-05-23 11:49:28.497
234.0, 13706.29086569439, 7027.701381170915, 25194.37225989965, -5123.265698345387, 27473.132607118205, 23685.942433588796, 21349.13460601981, 2700.157785434459, -0.002, -0.016, 0.978, 192.0, 0.0, 0.0, 0.0, 0.0, 0.0, 0.0, 0.0, 0.0, 0.0, 1.684835368497861E9, 0.0, 2023-05-23 11:49:28.497
235.0, 13705.150926727169, 7024.0803985691555, 25196.965062256466, -5134.843901973236, 27480.62044151073, 23694.03376508162, 21351.74976012108, 2693.809890009152, -0.002, -0.016, 0.978, 192.0, 0.0, 0.0, 0.0, 0.0, 0.0, 0.0, 0.0, 0.0, 0.0, 1.68483536849788E9, 0.0, 2023-05-23 11:49:28.497
236.0, 13703.988636015492, 7022.96281134639, 25197.59091110121, -5145.818608500792, 27491.595148038286, 23686.07654405553, 21355.37074272284, 2695.0168842097387, -0.002, -0.016, 0.978, 192.0, 0.0, 0.0, 0.0, 0.0, 0.0, 0.0, 0.0, 0.0, 0.0, 1.684835368497885E9, 0.0, 2023-05-23 11:49:28.497
237.0, 13697.32781616781, 7017.307819999197, 25179.485998092416, -5117.990686653935, 27495.99844169598, 23682.20969226476, 21358.7905596245, 2701.0518552126714, -0.002, -0.016, 0.978, 192.0, 0.0, 0.0, 0.0, 0.0, 0.0, 0.0, 0.0, 0.0, 0.0, 1.68483536849789E9, 0.0, 2023-05-23 11:49:28.497
238.0, 13704.770947071427, 7023.231032279853, 25169.785340998813, -5113.430930785052, 27463.543708746878, 23683.6402039099, 21347.882908330314, 2689.428948095912, -0.002, -0.016, 0.978, 192.0, 0.0, 0.0, 0.0, 0.0, 0.0, 0.0, 0.0, 0.0, 0.0, 1.684835368497895E9, 0.0, 2023-05-23 11:49:28.497
239.0, 13712.191726230589, 7031.143549817032, 25188.35964064117, -5106.72540744846, 27466.337676803792, 23690.50218945768, 21351.70505663217, 2690.479480085311, -0.002, -0.016, 0.978, 192.0, 0.0, 0.0, 0.0, 0.0, 0.0, 0.0, 0.0, 0.0, 0.0, 1.6848353684979E9, 0.0, 2023-05-23 11:49:28.497
240.0, 13708.302522695367, 7028.796616649225, 25198.105001223685, -5102.791500424326, 27471.053894883862, 23694.03376508162, 21348.50875717506, 2687.2384771392917, 0.002, -0.012, 0.974, 192.0, 0.0, 16.0, 255.0, 160.0, 30.0, 112.0, 0.0, 0.0, 0.0, 1.684835368497905E9, 0.0, 2023-05-23 11:49:28.497
241.0, 13701.708758081051, 7025.220337536376, 25199.6472715911, -5127.981916425457, 27488.711773003553, 23693.810247637066, 21363.819702126944, 2705.3433901480903, 0.002, -0.012, 0.974, 192.0, 0.0, 0.0, 0.0, 0.0, 0.0, 0.0, 0.0, 0.0, 0.0, 1.684835368558127E9, 0.0, 2023-05-23 11:49:28.558
242.0, 13697.171353956623, 7022.068741568178, 25186.83972201821, -5145.952718967524, 27496.177255651626, 23687.350593489482, 21374.146208065296, 2712.7641693072524, 0.002, -0.012, 0.974, 192.0, 0.0, 0.0, 0.0, 0.0, 0.0, 0.0, 0.0, 0.0, 0.0, 1.684835368558145E9, 0.0, 2023-05-23 11:49:28.558
243.0, 13711.476470408019, 7033.736352173848, 25179.195425414495, -5126.39494256913, 27466.360028548246, 23678.722820129733, 21353.247326999586, 2685.539744560688, 0.002, -0.012, 0.974, 192.0, 0.0, 0.0, 0.0, 0.0, 0.0, 0.0, 0.0, 0.0, 0.0, 1.684835368558149E9, 0.0, 2023-05-23 11:49:28.558
244.0, 13712.929333797614, 7033.91516612949, 25192.159437198574, -5108.781767938348, 27471.255060583957, 23683.97548007673, 21355.840129356402, 2696.8050237661632, 0.002, -0.012, 0.974, 192.0, 0.0, 0.0, 0.0, 0.0, 0.0, 0.0, 0.0, 0.0, 0.0, 1.684835368558154E9, 0.0, 2023-05-23 11:49:28.558
245.0, 13708.280170950911, 7025.801482892214, 25190.930091253533, -5123.7127332344935, 27478.988764165493, 23695.598387193488, 21352.576774665926, 2693.027578953216, 0.002, -0.012, 0.974, 192.0, 0.0, 0.0, 0.0, 0.0, 0.0, 0.0, 0.0, 0.0, 0.0, 1.684835368558159E9, 0.0, 2023-05-23 11:49:28.558
246.0, 13708.995426773481, 7030.495349227828, 25195.8474750337, -5133.949832195024, 27485.35901133526, 23698.37000350595, 21352.822643854935, 2696.3356371326017, 0.002, -0.012, 0.974, 192.0, 0.0, 0.0, 0.0, 0.0, 0.0, 0.0, 0.0, 0.0, 0.0, 1.684835368558163E9, 0.0, 2023-05-23 11:49:28.558
247.0, 13708.011950017448, 7028.416636993485, 25187.242053418406, -5142.331736365764, 27495.77492425143, 23685.182474277317, 21359.259946258062, 2704.6057825810653, 0.002, -0.012, 0.974, 192.0, 0.0, 0.0, 0.0, 0.0, 0.0, 0.0, 0.0, 0.0, 0.0, 1.684835368558167E9, 0.0, 2023-05-23 11:49:28.558
248.0, 13718.181993744613, 7037.178520819965, 25187.689088307514, -5089.514564217873, 27468.952830905062, 23687.551759189577, 21355.50485318957, 2698.3919976224897, 0.002, -0.012, 0.974, 192.0, 0.0, 0.0, 0.0, 0.0, 0.0, 0.0, 0.0, 0.0, 0.0, 1.684835368558171E9, 0.0, 2023-05-23 11:49:28.558
249.0, 13720.528926912419, 7041.358297033107, 25204.519951882357, -5091.749738663404, 27469.735141961, 23691.932701102818, 21356.264812501053, 2699.576640078621, 0.002, -0.012, 0.974, 192.0, 0.0, 0.0, 0.0, 0.0, 0.0, 0.0, 0.0, 0.0, 0.0, 1.684835368558177E9, 0.0, 2023-05-23 11:49:28.558
250.0, 13719.791319345393, 7041.000669121822, 25207.760954828376, -5105.071378358767, 27471.456226284055, 23695.55368370458, 21348.37464670833, 2685.0480061826715, 0.004, -0.014, 0.976, 192.0, 0.0, 32.0, 255.0, 144.0, 30.0, 128.0, 0.0, 0.0, 0.0, 1.684835368558184E9, 0.0, 2023-05-23 11:49:28.558
251.0, 13712.437595419598, 7032.574061462172, 25203.961158270977, -5107.328904548754, 27487.99651718098, 23698.481762228224, 21361.048085814487, 2708.4949861162886, 0.004, -0.014, 0.976, 192.0, 0.0, 0.0, 0.0, 0.0, 0.0, 0.0, 0.0, 0.0, 0.0, 1.684835368558188E9, 0.0, 2023-05-23 11:49:28.558
252.0, 13716.282095465911, 7036.3515062751185, 25196.18275120053, -5107.999456882412, 27501.5416743209, 23700.962805862764, 21369.13941730731, 2718.4415123989, 0.004, -0.014, 0.976, 192.0, 0.0, 0.0, 0.0, 0.0, 0.0, 0.0, 0.0, 0.0, 0.0, 1.684835368558194E9, 0.0, 2023-05-23 11:49:28.558
253.0, 13718.3384559558, 7040.911262144001, 25189.946614497498, -5111.642791228627, 27462.783749435395, 23699.889922128907, 21361.31630674795, 2700.2695441567357, 0.004, -0.014, 0.976, 192.0, 0.0, 0.0, 0.0, 0.0, 0.0, 0.0, 0.0, 0.0, 0.0, 1.684835368558203E9, 0.0, 2023-05-23 11:49:28.558
254.0, 13711.387063430198, 7033.848110896124, 25192.718230809955, -5111.329866806253, 27463.789577935884, 23694.771372648644, 21364.400847482782, 2701.2753726572246, 0.004, -0.014, 0.976, 192.0, 0.0, 0.0, 0.0, 0.0, 0.0, 0.0, 0.0, 0.0, 0.0, 1.684835368558209E9, 0.0, 2023-05-23 11:49:28.558
255.0, 13713.108147753257, 7033.378724262563, 25195.646309333602, -5110.122872605667, 27465.62242098122, 23691.73153540272, 21360.444588714196, 2691.798233008174, 0.004, -0.014, 0.976, 192.0, 0.0, 0.0, 0.0, 0.0, 0.0, 0.0, 0.0, 0.0, 0.0, 1.684835368558217E9, 0.0, 2023-05-23 11:49:28.558
0.0, 13710.738862840995, 7029.355410260608, 25198.306166923783, -5107.82064292677, 27477.424142053624, 23687.97644233423, 21373.9450423652, 2699.196660422881, 0.004, -0.014, 0.976, 192.0, 0.0, 0.0, 0.0, 0.0, 0.0, 0.0, 0.0, 0.0, 0.0, 1.684835368618332E9, 0.0, 2023-05-23 11:49:28.618
1.0, 13711.43176691911, 7033.132855073554, 25190.326594153237, -5115.643753486127, 27489.807008481865, 23685.78597137761, 21379.331812778928, 2699.9566197343615, 0.004, -0.014, 0.976, 192.0, 0.0, 0.0, 0.0, 0.0, 0.0, 0.0, 0.0, 0.0, 0.0, 1.684835368618343E9, 0.0, 2023-05-23 11:49:28.618
2.0, 13712.035264019403, 7033.5351864737495, 25183.88929175011, -5128.719523992482, 27465.220089581024, 23685.83067486652, 21367.574795195436, 2683.572791048621, 0.004, -0.014, 0.976, 192.0, 0.0, 0.0, 0.0, 0.0, 0.0, 0.0, 0.0, 0.0, 0.0, 1.684835368618348E9, 0.0, 2023-05-23 11:49:28.618
3.0, 13711.074139007824, 7033.982221362856, 25194.953405255488, -5129.792407726337, 27463.454301769056, 23693.27380577014, 21375.062629587967, 2698.6602185559536, 0.004, -0.014, 0.976, 192.0, 0.0, 0.0, 0.0, 0.0, 0.0, 0.0, 0.0, 0.0, 0.0, 1.684835368618353E9, 0.0, 2023-05-23 11:49:28.618
4.0, 13705.2850371939, 7030.450645738918, 25201.346004169704, -5138.978974697468, 27464.34837154727, 23693.966709848253, 21369.005306840576, 2696.670913299431, 0.002, -0.014, 0.976, 192.0, 0.0, 16.0, 255.0, 144.0, 30.0, 128.0, 0.0, 0.0, 0.0, 1.684835368618358E9, 0.0, 2023-05-23 11:49:28.618
5.0, 13707.386101172699, 7028.1931195489315, 25204.832876304732, -5115.5543465083065, 27478.5864327653, 23691.709183658266, 21374.727353421134, 2702.504718602266, 0.002, -0.014, 0.976, 192.0, 0.0, 0.0, 0.0, 0.0, 0.0, 0.0, 0.0, 0.0, 0.0, 1.684835368618363E9, 0.0, 2023-05-23 11:49:28.618
6.0, 13716.751482099473, 7033.892814385035, 25196.56273085627, -5114.436759285541, 27489.382325337214, 23688.334070245513, 21379.60003371239, 2710.3948843949897, 0.002, -0.014, 0.976, 192.0, 0.0, 0.0, 0.0, 0.0, 0.0, 0.0, 0.0, 0.0, 0.0, 1.684835368618368E9, 0.0, 2023-05-23 11:49:28.618
7.0, 13715.812708832349, 7035.72565743037, 25187.08559120722, -5128.8759862036695, 27457.62049646622, 23685.83067486652, 21362.32213524844, 2691.2394393967916, 0.002, -0.014, 0.976, 192.0, 0.0, 0.0, 0.0, 0.0, 0.0, 0.0, 0.0, 0.0, 0.0, 1.684835368618373E9, 0.0, 2023-05-23 11:49:28.618
8.0, 13705.732072083007, 7028.550747460216, 25194.863998277666, -5122.170462867077, 27458.313400544335, 23692.73736390321, 21365.920766105744, 2690.0547969406603, 0.002, -0.014, 0.976, 192.0, 0.0, 0.0, 0.0, 0.0, 0.0, 0.0, 0.0, 0.0, 0.0, 1.684835368618378E9, 0.0, 2023-05-23 11:49:28.618
9.0, 13706.268513949934, 7028.148416060021, 25199.915492524564, -5097.091805588223, 27463.230784324503, 23696.31364301606, 21362.232728270617, 2678.5436485461773, 0.002, -0.014, 0.976, 192.0, 0.0, 0.0, 0.0, 0.0, 0.0, 0.0, 0.0, 0.0, 0.0, 1.684835368618383E9, 0.0, 2023-05-23 11:49:28.618
10.0, 13700.658226091651, 7020.884099112046, 25198.954367512986, -5117.141320364633, 27480.374572321725, 23700.091087829005, 21375.822588899446, 2701.7224075463305, 0.002, -0.014, 0.976, 192.0, 0.0, 0.0, 0.0, 0.0, 0.0, 0.0, 0.0, 0.0, 0.0, 1.684835368618388E9, 0.0, 2023-05-23 11:49:28.618
11.0, 13696.031414989402, 7017.017247321278, 25184.045753961298, -5135.581509540261, 27487.527130547423, 23697.72180291674, 21389.211283828176, 2725.839939813607, 0.002, -0.014, 0.976, 192.0, 0.0, 0.0, 0.0, 0.0, 0.0, 0.0, 0.0, 0.0, 0.0, 1.684835368618393E9, 0.0, 2023-05-23 11:49:28.618
12.0, 13698.80303130186, 7021.889927612535, 25180.22360565944, -5140.767114253893, 27448.590391706275, 23690.099858057485, 21373.0956760759, 2706.1480529484816, 0.002, -0.014, 0.976, 192.0, 0.0, 0.0, 0.0, 0.0, 0.0, 0.0, 0.0, 0.0, 0.0, 1.684835368618398E9, 0.0, 2023-05-23 11:49:28.618
13.0, 13694.71266206654, 7018.984200833345, 25189.499579608393, -5132.340506594242, 27443.80711839284, 23684.82484636603, 21374.123856320843, 2702.0576837131603, 0.002, -0.014, 0.976, 192.0, 0.0, 0.0, 0.0, 0.0, 0.0, 0.0, 0.0, 0.0, 0.0, 1.684835368618403E9, 0.0, 2023-05-23 11:49:28.618
14.0, 13685.436688117587, 7014.424444964462, 25190.952442997987, -5136.788503740848, 27458.44751101107, 23682.74613413169, 21369.005306840576, 2691.10532893006, 0.006, -0.012, 0.972, 192.0, 0.0, 48.0, 255.0, 160.0, 30.0, 96.0, 0.0, 0.0, 0.0, 1.684835368618407E9, 0.0, 2023-05-23 11:49:28.618
15.0, 13683.000347971958, 7009.283543739742, 25188.65021331909, -5143.605785799717, 27470.53980476139, 23682.075581798028, 21365.965469594656, 2690.166555662937, 0.006, -0.012, 0.972, 192.0, 0.0, 0.0, 0.0, 0.0, 0.0, 0.0, 0.0, 0.0, 0.0, 1.684835368685185E9, 0.0, 2023-05-23 11:49:28.685
16.0, 13686.151943940156, 7007.517755927773, 25179.530701581327, -5158.693213307049, 27489.29291835939, 23676.01825905064, 21367.32892600643, 2684.846840482574, 0.006, -0.012, 0.972, 192.0, 0.0, 0.0, 0.0, 0.0, 0.0, 0.0, 0.0, 0.0, 0.0, 1.684835368685199E9, 0.0, 2023-05-23 11:49:28.685
17.0, 13710.537697140897, 7031.255308539308, 25179.17307367004, -5126.909032691602, 27457.665199955132, 23668.664535124844, 21355.61661191185, 2661.869247182518, 0.006, -0.012, 0.972, 192.0, 0.0, 0.0, 0.0, 0.0, 0.0, 0.0, 0.0, 0.0, 0.0, 1.684835368685204E9, 0.0, 2023-05-23 11:49:28.685
18.0, 13709.263647706945, 7030.718866672381, 25191.287719164815, -5114.839090685737, 27450.356179518247, 23678.40989570736, 21366.03252482802, 2680.4658985693336, 0.006, -0.012, 0.972, 192.0, 0.0, 0.0, 0.0, 0.0, 0.0, 0.0, 0.0, 0.0, 0.0, 1.684835368685209E9, 0.0, 2023-05-23 11:49:28.685
19.0, 13704.100394737769, 7026.092055570132, 25192.829989532234, -5110.927535406057, 27464.86246166974, 23694.950186604285, 21375.397905754795, 2694.480442342811, 0.006, -0.012, 0.972, 192.0, 0.0, 0.0, 0.0, 0.0, 0.0, 0.0, 0.0, 0.0, 0.0, 1.684835368685214E9, 0.0, 2023-05-23 11:49:28.685
20.0, 13697.014891745435, 7022.359314246097, 25193.008803487875, -5102.947962635513, 27487.974165436528, 23699.73345991772, 21385.590301226413, 2708.740855305297, 0.006, -0.012, 0.972, 192.0, 0.0, 0.0, 0.0, 0.0, 0.0, 0.0, 0.0, 0.0, 0.0, 1.684835368685219E9, 0.0, 2023-05-23 11:49:28.685
21.0, 13700.367653413732, 7015.854956609602, 25177.45198934698, -5114.816738941281, 27495.618462040242, 23695.844256382497, 21392.80991468548, 2711.892451273495, 0.006, -0.012, 0.972, 192.0, 0.0, 0.0, 0.0, 0.0, 0.0, 0.0, 0.0, 0.0, 0.0, 1.684835368685224E9, 0.0, 2023-05-23 11:49:28.685
22.0, 13711.990560530492, 7023.722770657871, 25168.488939820403, -5118.147148865121, 27456.257040054446, 23690.904520857875, 21372.961565609166, 2690.099500429571, 0.006, -0.012, 0.972, 192.0, 0.0, 0.0, 0.0, 0.0, 0.0, 0.0, 0.0, 0.0, 0.0, 1.684835368685265E9, 0.0, 2023-05-23 11:49:28.685
23.0, 13704.927409282614, 7022.2028520349095, 25180.536530081812, -5114.503814518906, 27452.591353963777, 23684.847198110485, 21369.452341729684, 2688.870154484529, 0.006, -0.012, 0.972, 192.0, 0.0, 0.0, 0.0, 0.0, 0.0, 0.0, 0.0, 0.0, 0.0, 1.684835368685271E9, 0.0, 2023-05-23 11:49:28.685
24.0, 13698.601865601762, 7018.336000244141, 25186.102114451187, -5119.979991910457, 27467.410560537646, 23694.324337759535, 21370.301708018986, 2692.2005644083697, 0.006, -0.012, 0.966, 192.0, 0.0, 48.0, 255.0, 160.0, 30.0, 48.0, 0.0, 0.0, 0.0, 1.684835368685277E9, 0.0, 2023-05-23 11:49:28.685
25.0, 13689.482353863998, 7010.468186195873, 25183.55401558328, -5118.772997709871, 27478.92170893213, 23702.862704141466, 21375.643774943805, 2701.856518013062, 0.006, -0.012, 0.966, 192.0, 0.0, 0.0, 0.0, 0.0, 0.0, 0.0, 0.0, 0.0, 0.0, 1.684835368685283E9, 0.0, 2023-05-23 11:49:28.685
26.0, 13695.919656267126, 7013.932706586445, 25171.729942766422, -5104.937267892035, 27477.5359007759, 23696.44775348279, 21374.257966787573, 2702.214145924347, 0.006, -0.012, 0.966, 192.0, 0.0, 0.0, 0.0, 0.0, 0.0, 0.0, 0.0, 0.0, 0.0, 1.68483536868529E9, 0.0, 2023-05-23 11:49:28.685
27.0, 13709.844793062783, 7028.528395715761, 25169.383009598616, -5111.665142973083, 27441.035502080384, 23691.932701102818, 21357.22593751263, 2685.9867794497945, 0.006, -0.012, 0.966, 192.0, 0.0, 0.0, 0.0, 0.0, 0.0, 0.0, 0.0, 0.0, 0.0, 1.684835368685297E9, 0.0, 2023-05-23 11:49:28.685
28.0, 13711.767043085938, 7032.283488784253, 25184.98452722842, -5109.429968527552, 27448.18806030608, 23697.29711977209, 21374.146208065296, 2708.6290965830203, 0.006, -0.012, 0.966, 192.0, 0.0, 0.0, 0.0, 0.0, 0.0, 0.0, 0.0, 0.0, 0.0, 1.684835368685304E9, 0.0, 2023-05-23 11:49:28.685
29.0, 13712.86227856425, 7031.7693986617805, 25194.863998277666, -5119.801177954814, 27463.990743635983, 23706.34957627649, 21381.008193613077, 2711.7136373178528, 0.006, -0.012, 0.966, 192.0, 0.0, 0.0, 0.0, 0.0, 0.0, 0.0, 0.0, 0.0, 0.0, 1.684835368685311E9, 0.0, 2023-05-23 11:49:28.685
30.0, 13714.225734976022, 7030.472997483373, 25200.98837625842, -5094.431947998041, 27476.06068564185, 23704.874361142443, 21376.56019646647, 2708.58439309411, 0.006, -0.012, 0.966, 192.0, 0.0, 0.0, 0.0, 0.0, 0.0, 0.0, 0.0, 0.0, 0.0, 1.684835368738813E9, 0.0, 2023-05-23 11:49:28.738
31.0, 13707.497859894975, 7022.426369479463, 25185.588024328714, -5105.5184132478735, 27489.762304992953, 23696.000718593685, 21382.639870958315, 2710.1713669504365, 0.006, -0.012, 0.966, 192.0, 0.0, 0.0, 0.0, 0.0, 0.0, 0.0, 0.0, 0.0, 0.0, 1.684835368738826E9, 0.0, 2023-05-23 11:49:28.738
32.0, 13719.14311875619, 7035.569195219183, 25181.497655093393, -5117.208375597999, 27457.307572043846, 23692.379735991926, 21372.916862120255, 2697.4308726109116, 0.006, -0.012, 0.966, 192.0, 0.0, 0.0, 0.0, 0.0, 0.0, 0.0, 0.0, 0.0, 0.0, 1.684835368738831E9, 0.0, 2023-05-23 11:49:28.738
33.0, 13721.802976346371, 7041.782980177758, 25197.99324250141, -5106.7477591929155, 27450.222069051513, 23693.899654614885, 21375.50966447707, 2706.3715703930343, 0.006, -0.012, 0.966, 192.0, 0.0, 0.0, 0.0, 0.0, 0.0, 0.0, 0.0, 0.0, 0.0, 1.684835368738836E9, 0.0, 2023-05-23 11:49:28.738
34.0, 13715.455080921065, 7034.205738807409, 25205.79400131631, -5108.53589874934, 27468.416389038135, 23693.609081936967, 21377.61072845587, 2706.125701204026, 0.004, -0.01, 0.968, 192.0, 0.0, 32.0, 255.0, 176.0, 30.0, 64.0, 0.0, 0.0, 0.0, 1.684835368738841E9, 0.0, 2023-05-23 11:49:28.738
35.0, 13708.123708739724, 7028.640154438038, 25202.88827453712, -5105.473709758962, 27478.497025787477, 23695.173704048837, 21382.70692619168, 2715.6475443419868, 0.004, -0.01, 0.968, 192.0, 0.0, 0.0, 0.0, 0.0, 0.0, 0.0, 0.0, 0.0, 0.0, 1.684835368738846E9, 0.0, 2023-05-23 11:49:28.738
36.0, 13705.37444417172, 7024.460378224895, 25185.811541773266, -5110.994590639423, 27484.688459001598, 23693.87730287043, 21390.95471989569, 2725.571718880143, 0.004, -0.01, 0.968, 192.0, 0.0, 0.0, 0.0, 0.0, 0.0, 0.0, 0.0, 0.0, 0.0, 1.684835368738852E9, 0.0, 2023-05-23 11:49:28.738
37.0, 13715.343322198787, 7029.6012794496155, 25175.865015490654, -5109.072340616267, 27445.505850971444, 23688.646994667888, 21377.409562755773, 2705.701018059375, 0.004, -0.01, 0.968, 192.0, 0.0, 0.0, 0.0, 0.0, 0.0, 0.0, 0.0, 0.0, 0.0, 1.684835368738857E9, 0.0, 2023-05-23 11:49:28.738
38.0, 13704.279208693411, 7017.7995583772135, 25181.072971948743, -5118.0800936317555, 27446.444624238567, 23683.21552076525, 21386.976109382646, 2709.053779727671, 0.004, -0.01, 0.968, 192.0, 0.0, 0.0, 0.0, 0.0, 0.0, 0.0, 0.0, 0.0, 0.0, 1.684835368738862E9, 0.0, 2023-05-23 11:49:28.738
39.0, 13695.293807422377, 7010.937572829434, 25183.352849883184, -5135.179178140066, 27465.309496558846, 23689.339898746002, 21393.61457748587, 2710.05960822816, 0.004, -0.01, 0.968, 192.0, 0.0, 0.0, 0.0, 0.0, 0.0, 0.0, 0.0, 0.0, 0.0, 1.684835368738866E9, 0.0, 2023-05-23 11:49:28.738
40.0, 13699.741804568983, 7017.687799654937, 25187.37616388514, -5108.401788282608, 27480.53103453291, 23698.325300017037, 21399.493086277616, 2721.257832200269, 0.004, -0.01, 0.968, 192.0, 0.0, 0.0, 0.0, 0.0, 0.0, 0.0, 0.0, 0.0, 0.0, 1.684835368738872E9, 0.0, 2023-05-23 11:49:28.738
41.0, 13707.073176750324, 7021.755817145803, 25179.08366669222, -5104.244363813921, 27485.604880524264, 23694.21257903726, 21399.247217088607, 2721.3025356891794, 0.004, -0.01, 0.968, 192.0, 0.0, 0.0, 0.0, 0.0, 0.0, 0.0, 0.0, 0.0, 0.0, 1.684835368738877E9, 0.0, 2023-05-23 11:49:28.738
42.0, 13713.845755320282, 7027.34375325963, 25171.417018344047, -5112.514509262384, 27449.5291649734, 23686.63533766691, 21383.51158899207, 2703.0411604691935, 0.004, -0.01, 0.968, 192.0, 0.0, 0.0, 0.0, 0.0, 0.0, 0.0, 0.0, 0.0, 0.0, 1.684835368738883E9, 0.0, 2023-05-23 11:49:28.738
43.0, 13707.542563383886, 7023.409846235496, 25182.503483593882, -5112.380398795653, 27450.065606840326, 23687.21648302275, 21385.880873904334, 2708.003247738272, 0.004, -0.01, 0.968, 192.0, 0.0, 0.0, 0.0, 0.0, 0.0, 0.0, 0.0, 0.0, 0.0, 1.684835368738906E9, 0.0, 2023-05-23 11:49:28.738
44.0, 13705.262685449445, 7021.599354934616, 25193.03115523233, -5089.536915962329, 27467.276450070913, 23691.619776680443, 21383.04220235851, 2705.3433901480903, 0.006, -0.008, 0.966, 192.0, 0.0, 48.0, 255.0, 192.0, 30.0, 48.0, 0.0, 0.0, 0.0, 1.68483536873891E9, 0.0, 2023-05-23 11:49:28.738
45.0, 13696.94783651207, 7013.843299608625, 25190.483056364425, -5097.695302688516, 27474.71958097453, 23695.106648815472, 21376.984879611122, 2712.6524105849758, 0.006, -0.008, 0.966, 192.0, 0.0, 0.0, 0.0, 0.0, 0.0, 0.0, 0.0, 0.0, 0.0, 1.684835368797888E9, 0.0, 2023-05-23 11:49:28.797
46.0, 13704.212153460045, 7018.134834544044, 25181.430599860025, -5121.5446140223285, 27485.5378252909, 23698.749983161688, 21384.293900048007, 2718.3968089099894, 0.006, -0.008, 0.966, 192.0, 0.0, 0.0, 0.0, 0.0, 0.0, 0.0, 0.0, 0.0, 0.0, 1.684835368797912E9, 0.0, 2023-05-23 11:49:28.797
47.0, 13716.170336743635, 7028.282526526753, 25177.250823646882, -5111.44162552853, 27446.645789938666, 23699.465238984256, 21370.61463244136, 2698.481404600311, 0.006, -0.008, 0.966, 192.0, 0.0, 0.0, 0.0, 0.0, 0.0, 0.0, 0.0, 0.0, 0.0, 1.684835368797917E9, 0.0, 2023-05-23 11:49:28.797
48.0, 13714.09162450929, 7027.0755323261665, 25189.544283097304, -5101.048064356812, 27456.704074943555, 23702.192151807805, 21374.48148423213, 2703.8905267584955, 0.006, -0.008, 0.966, 192.0, 0.0, 0.0, 0.0, 0.0, 0.0, 0.0, 0.0, 0.0, 0.0, 1.684835368797922E9, 0.0, 2023-05-23 11:49:28.797
49.0, 13710.537697140897, 7023.946288102423, 25194.953405255488, -5096.53301197684, 27471.299764072868, 23702.169800063348, 21377.27545228904, 2698.615515067043, 0.006, -0.008, 0.966, 192.0, 0.0, 0.0, 0.0, 0.0, 0.0, 0.0, 0.0, 0.0, 0.0, 1.684835368797926E9, 0.0, 2023-05-23 11:49:28.797
50.0, 13702.37931041471, 7019.453587466906, 25192.137085454116, -5101.852727157203, 27474.138435618694, 23699.59934945099, 21378.728315678636, 2704.516375603244, 0.006, -0.008, 0.966, 192.0, 0.0, 0.0, 0.0, 0.0, 0.0, 0.0, 0.0, 0.0, 0.0, 1.68483536879793E9, 0.0, 2023-05-23 11:49:28.797
51.0, 13701.865220292239, 7012.725712385859, 25177.02730620233, -5111.463977272985, 27479.52520603242, 23690.479837713225, 21382.32694653594, 2715.781654808719, 0.006, -0.008, 0.966, 192.0, 0.0, 0.0, 0.0, 0.0, 0.0, 0.0, 0.0, 0.0, 0.0, 1.684835368797935E9, 0.0, 2023-05-23 11:49:28.797
52.0, 13710.694159352084, 7019.319477000175, 25169.941803209997, -5113.766206951882, 27445.751720160453, 23680.779180619622, 21363.886757360313, 2694.0781109426157, 0.006, -0.008, 0.966, 192.0, 0.0, 0.0, 0.0, 0.0, 0.0, 0.0, 0.0, 0.0, 0.0, 1.68483536879794E9, 0.0, 2023-05-23 11:49:28.797
53.0, 13704.905057538159, 7015.474976953862, 25179.75421902588, -5093.761395664382, 27440.56611544682, 23681.15916027536, 21360.33282999192, 2692.7593580197527, 0.006, -0.008, 0.966, 192.0, 0.0, 0.0, 0.0, 0.0, 0.0, 0.0, 0.0, 0.0, 0.0, 1.684835368797945E9, 0.0, 2023-05-23 11:49:28.797
54.0, 13704.726243582518, 7016.145529287521, 25184.805713272777, -5098.678779444549, 27462.940211646583, 23686.322413244536, 21361.22689977013, 2685.4279858384116, 0.008, -0.014, 0.972, 192.0, 0.0, 64.0, 255.0, 144.0, 30.0, 96.0, 0.0, 0.0, 0.0, 1.68483536879795E9, 0.0, 2023-05-23 11:49:28.797
55.0, 13704.770947071427, 7017.643096166026, 25184.85041676169, -5099.259924800387, 27458.62632496671, 23685.897730099885, 21364.356143993875, 2691.9099917304507, 0.008, -0.014, 0.972, 192.0, 0.0, 0.0, 0.0, 0.0, 0.0, 0.0, 0.0, 0.0, 0.0, 1.684835368797968E9, 0.0, 2023-05-23 11:49:28.797
56.0, 13703.496897637475, 7016.681971154449, 25176.066181190752, -5109.809948183292, 27465.354200047757, 23679.996869563685, 21375.174388310243, 2712.004209995772, 0.008, -0.014, 0.972, 192.0, 0.0, 0.0, 0.0, 0.0, 0.0, 0.0, 0.0, 0.0, 0.0, 1.684835368797988E9, 0.0, 2023-05-23 11:49:28.797
57.0, 13707.408452917154, 7024.929764858457, 25166.924317708534, -5100.221049811966, 27437.593333434266, 23672.844311337987, 21364.333792249417, 2690.323017874124, 0.008, -0.014, 0.972, 192.0, 0.0, 0.0, 0.0, 0.0, 0.0, 0.0, 0.0, 0.0, 0.0, 1.684835368797994E9, 0.0, 2023-05-23 11:49:28.797
58.0, 13700.278246435912, 7022.091093312632, 25177.362582369162, -5093.157898564088, 27444.298856770856, 23679.05809629656, 21369.474693474138, 2696.939134232895, 0.008, -0.014, 0.972, 192.0, 0.0, 0.0, 0.0, 0.0, 0.0, 0.0, 0.0, 0.0, 0.0, 1.684835368797999E9, 0.0, 2023-05-23 11:49:28.797
59.0, 13699.294769679878, 7020.0570845672, 25182.347021382695, -5094.499003231407, 27466.24826982597, 23686.054192311072, 21377.52132147805, 2697.520279588733, 0.008, -0.014, 0.972, 192.0, 0.0, 0.0, 0.0, 0.0, 0.0, 0.0, 0.0, 0.0, 0.0, 1.684835368798005E9, 0.0, 2023-05-23 11:49:28.798
60.0, 13700.367653413732, 7019.833567122647, 25181.475303348936, -5099.751663178404, 27464.10250235826, 23688.579939434523, 21386.953757638188, 2712.6300588405206, 0.008, -0.014, 0.972, 192.0, 0.0, 0.0, 0.0, 0.0, 0.0, 0.0, 0.0, 0.0, 0.0, 1.684835368858124E9, 0.0, 2023-05-23 11:49:28.858
61.0, 13694.80206904436, 7013.664485652982, 25172.154625911073, -5109.072340616267, 27479.994592665982, 23689.96574759075, 21403.024661901556, 2733.3724776950453, 0.008, -0.014, 0.972, 192.0, 0.0, 0.0, 0.0, 0.0, 0.0, 0.0, 0.0, 0.0, 0.0, 1.684835368858138E9, 0.0, 2023-05-23 11:49:28.858
62.0, 13700.904095280659, 7018.62657292206, 25165.516157807848, -5090.587447951728, 27458.738083688986, 23685.361288232958, 21385.500894248595, 2708.159709949459, 0.008, -0.014, 0.972, 192.0, 0.0, 0.0, 0.0, 0.0, 0.0, 0.0, 0.0, 0.0, 0.0, 1.684835368858143E9, 0.0, 2023-05-23 11:49:28.858
63.0, 13700.255894691456, 7019.475939211362, 25174.83683524571, -5097.918820133069, 27452.211374308037, 23687.73057314522, 21386.506722749084, 2706.684494815409, 0.008, -0.014, 0.972, 192.0, 0.0, 0.0, 0.0, 0.0, 0.0, 0.0, 0.0, 0.0, 0.0, 1.684835368858149E9, 0.0, 2023-05-23 11:49:28.858
64.0, 13701.418185403132, 7018.336000244141, 25183.79988477229, -5104.736102191938, 27465.778883192408, 23698.16883780585, 21396.72146996516, 2708.9196692609394, 0.008, -0.016, 0.972, 192.0, 0.0, 64.0, 255.0, 128.0, 30.0, 96.0, 0.0, 0.0, 0.0, 1.684835368858177E9, 0.0, 2023-05-23 11:49:28.858
65.0, 13696.389042900688, 7017.643096166026, 25185.632727817625, -5112.939192407035, 27469.131644860703, 23692.26797726965, 21391.200589084696, 2703.0188087247384, 0.008, -0.016, 0.972, 192.0, 0.0, 0.0, 0.0, 0.0, 0.0, 0.0, 0.0, 0.0, 0.0, 1.684835368858182E9, 0.0, 2023-05-23 11:49:28.858
66.0, 13697.081946978802, 7015.385569976041, 25176.289698635304, -5062.893636571603, 27485.873101457728, 23689.608119679466, 21398.28609207703, 2715.9157652754507, 0.008, -0.016, 0.972, 192.0, 0.0, 0.0, 0.0, 0.0, 0.0, 0.0, 0.0, 0.0, 0.0, 1.684835368858187E9, 0.0, 2023-05-23 11:49:28.858
67.0, 13700.85939179175, 7017.017247321278, 25164.912660707556, -5066.693433129005, 27457.464034255034, 23685.115419043952, 21389.45715301718, 2697.877907500018, 0.008, -0.016, 0.972, 192.0, 0.0, 0.0, 0.0, 0.0, 0.0, 0.0, 0.0, 0.0, 0.0, 1.684835368858193E9, 0.0, 2023-05-23 11:49:28.858
68.0, 13702.133441225702, 7023.6110119355935, 25178.480169591927, -5094.051968342301, 27451.585525463288, 23687.97644233423, 21384.629176214836, 2695.709788287853, 0.008, -0.016, 0.972, 192.0, 0.0, 0.0, 0.0, 0.0, 0.0, 0.0, 0.0, 0.0, 0.0, 1.684835368858198E9, 0.0, 2023-05-23 11:49:28.858
69.0, 13697.014891745435, 7016.033770565245, 25187.465570862958, -5103.48440450244, 27467.81289193784, 23694.592558693, 21379.890606390312, 2691.060625441149, 0.008, -0.016, 0.972, 192.0, 0.0, 0.0, 0.0, 0.0, 0.0, 0.0, 0.0, 0.0, 0.0, 1.684835368858204E9, 0.0, 2023-05-23 11:49:28.858
70.0, 13700.18883945809, 7017.911317099491, 25191.42182963155, -5104.669046958572, 27480.64279325519, 23701.990986107707, 21382.818684913957, 2696.8050237661632, 0.008, -0.016, 0.972, 192.0, 0.0, 0.0, 0.0, 0.0, 0.0, 0.0, 0.0, 0.0, 0.0, 1.684835368858208E9, 0.0, 2023-05-23 11:49:28.858
71.0, 13700.367653413732, 7019.900622356013, 25180.715344037457, -5105.339599292231, 27496.512531818455, 23692.64795692539, 21387.914882649766, 2700.850689512574, 0.008, -0.016, 0.972, 192.0, 0.0, 0.0, 0.0, 0.0, 0.0, 0.0, 0.0, 0.0, 0.0, 1.684835368858214E9, 0.0, 2023-05-23 11:49:28.858
72.0, 13700.814688302838, 7025.980296847856, 25169.919451465543, -5107.977105137958, 27460.66033371214, 23671.8384828375, 21377.61072845587, 2686.187945149892, 0.008, -0.016, 0.972, 192.0, 0.0, 0.0, 0.0, 0.0, 0.0, 0.0, 0.0, 0.0, 0.0, 1.684835368858219E9, 0.0, 2023-05-23 11:49:28.858
73.0, 13698.423051646121, 7027.3661050040855, 25181.98939347141, -5113.341523807231, 27456.793481921373, 23669.5362531586, 21384.003327370086, 2687.3725876060234, 0.008, -0.016, 0.972, 192.0, 0.0, 0.0, 0.0, 0.0, 0.0, 0.0, 0.0, 0.0, 0.0, 1.684835368858225E9, 0.0, 2023-05-23 11:49:28.858
74.0, 13699.071252235324, 7023.566308446683, 25190.21483543096, -5110.815776683781, 27479.614613010242, 23675.21359625025, 21375.12968482133, 2671.3910903204787, 0.008, -0.016, 0.972, 192.0, 0.0, 0.0, 0.0, 0.0, 0.0, 0.0, 0.0, 0.0, 0.0, 1.68483536885823E9, 0.0, 2023-05-23 11:49:28.858
75.0, 13698.132478968202, 7019.252421766809, 25190.527759853336, -5112.983895895946, 27483.995554923484, 23677.694639884787, 21366.211338783665, 2666.2725408402134, 0.004, -0.018000000000000002, 0.974, 192.0, 0.0, 32.0, 255.0, 112.0, 30.0, 112.0, 0.0, 0.0, 0.0, 1.684835368918431E9, 0.0, 2023-05-23 11:49:28.918
76.0, 13705.821479060827, 7028.081360826655, 25187.13029469613, -5107.463015015485, 27497.183084152115, 23683.103762042974, 21373.363897009363, 2685.67385502742, 0.004, -0.018000000000000002, 0.974, 192.0, 0.0, 0.0, 0.0, 0.0, 0.0, 0.0, 0.0, 0.0, 0.0, 1.684835368918443E9, 0.0, 2023-05-23 11:49:28.918
77.0, 13720.350112956778, 7042.587642978149, 25186.88442550712, -5086.765299649871, 27472.707923973554, 23688.132904545415, 21372.492178975604, 2680.622360780521, 0.004, -0.018000000000000002, 0.974, 192.0, 0.0, 0.0, 0.0, 0.0, 0.0, 0.0, 0.0, 0.0, 0.0, 1.684835368918448E9, 0.0, 2023-05-23 11:49:28.918
78.0, 13714.940990798592, 7037.245576053331, 25190.773629042345, -5065.844066839703, 27465.130682603205, 23688.535235945612, 21373.743876665103, 2682.7681282482304, 0.004, -0.018000000000000002, 0.974, 192.0, 0.0, 0.0, 0.0, 0.0, 0.0, 0.0, 0.0, 0.0, 0.0, 1.684835368918454E9, 0.0, 2023-05-23 11:49:28.918
79.0, 13710.470641907532, 7033.334020773652, 25196.98741400092, -5073.667177399061, 27475.792464708386, 23687.574110934034, 21385.344432037407, 2696.6932650438866, 0.004, -0.018000000000000002, 0.974, 192.0, 0.0, 0.0, 0.0, 0.0, 0.0, 0.0, 0.0, 0.0, 0.0, 1.684835368918459E9, 0.0, 2023-05-23 11:49:28.918
80.0, 13697.774851056916, 7023.231032279853, 25195.400440144593, -5084.7983461378035, 27489.82936022632, 23686.434171966812, 21385.836170415423, 2707.8691372715402, 0.004, -0.018000000000000002, 0.974, 192.0, 0.0, 0.0, 0.0, 0.0, 0.0, 0.0, 0.0, 0.0, 0.0, 1.68483536891847E9, 0.0, 2023-05-23 11:49:28.918
81.0, 13696.746670811972, 7024.929764858457, 25189.83485577522, -5098.947000378013, 27514.77390703844, 23689.83163712402, 21394.598054241902, 2716.4298553979224, 0.004, -0.018000000000000002, 0.974, 192.0, 0.0, 0.0, 0.0, 0.0, 0.0, 0.0, 0.0, 0.0, 0.0, 1.684835368918475E9, 0.0, 2023-05-23 11:49:28.918
82.0, 13715.94681929908, 7039.436047009951, 25189.767800541857, -5093.381416008641, 27476.932403675608, 23697.677099427834, 21388.116048349864, 2703.6223058250316, 0.004, -0.018000000000000002, 0.974, 192.0, 0.0, 0.0, 0.0, 0.0, 0.0, 0.0, 0.0, 0.0, 0.0, 1.684835368918481E9, 0.0, 2023-05-23 11:49:28.918
83.0, 13715.678598365617, 7039.480750498861, 25196.78624830082, -5081.95967459198, 27460.10154010076, 23705.634320453923, 21383.71275469217, 2707.332695404613, 0.004, -0.018000000000000002, 0.974, 192.0, 0.0, 0.0, 0.0, 0.0, 0.0, 0.0, 0.0, 0.0, 0.0, 1.684835368918486E9, 0.0, 2023-05-23 11:49:28.918
84.0, 13705.262685449445, 7028.371933504574, 25199.93784426902, -5086.921761861058, 27476.932403675608, 23706.751907676688, 21382.148132580296, 2703.421140124934, 0.004, -0.018000000000000002, 0.974, 192.0, 0.0, 0.0, 0.0, 0.0, 0.0, 0.0, 0.0, 0.0, 0.0, 1.684835368918491E9, 0.0, 2023-05-23 11:49:28.918
85.0, 13701.686406336596, 7027.902546871012, 25200.049602991297, -5085.491250215919, 27489.136456148204, 23706.21546580976, 21380.069420345953, 2704.784596536708, 0.008, -0.016, 0.97, 192.0, 0.0, 64.0, 255.0, 128.0, 30.0, 80.0, 0.0, 0.0, 0.0, 1.684835368918496E9, 0.0, 2023-05-23 11:49:28.918
86.0, 13700.904095280659, 7027.2543462818085, 25191.399477887095, -5067.408688951575, 27504.514456333454, 23699.912273873364, 21387.8478274164, 2711.8477477845845, 0.008, -0.016, 0.97, 192.0, 0.0, 0.0, 0.0, 0.0, 0.0, 0.0, 0.0, 0.0, 0.0, 1.684835368918517E9, 0.0, 2023-05-23 11:49:28.918
87.0, 13712.750519841973, 7041.246538310831, 25187.823198774244, -5087.681721172538, 27466.62824948171, 23695.598387193488, 21373.319193520452, 2693.1169859310376, 0.008, -0.016, 0.97, 192.0, 0.0, 0.0, 0.0, 0.0, 0.0, 0.0, 0.0, 0.0, 0.0, 1.684835368918522E9, 0.0, 2023-05-23 11:49:28.918
88.0, 13711.14119424119, 7037.53614873125, 25193.724059310443, -5102.143299835122, 27446.556382960844, 23696.581863949523, 21367.060705072967, 2696.223878410325, 0.008, -0.016, 0.97, 192.0, 0.0, 0.0, 0.0, 0.0, 0.0, 0.0, 0.0, 0.0, 0.0, 1.684835368918527E9, 0.0, 2023-05-23 11:49:28.918
89.0, 13698.065423734835, 7019.72180840037, 25190.550111597793, -5075.209447766477, 27475.50189203047, 23700.806343651577, 21381.455228502182, 2715.3793234085233, 0.008, -0.016, 0.97, 192.0, 0.0, 0.0, 0.0, 0.0, 0.0, 0.0, 0.0, 0.0, 0.0, 1.684835368918533E9, 0.0, 2023-05-23 11:49:28.918
90.0, 13691.404603887155, 7018.24659326632, 25190.952442997987, -5091.347407263209, 27489.739953248496, 23704.36027101997, 21387.825475671947, 2726.890471803006, 0.008, -0.016, 0.97, 192.0, 0.0, 0.0, 0.0, 0.0, 0.0, 0.0, 0.0, 0.0, 0.0, 1.684835368978658E9, 0.0, 2023-05-23 11:49:28.978
91.0, 13685.66020556214, 7013.508023441795, 25177.206120157975, -5107.954753393502, 27494.612633539753, 23698.280596528126, 21386.886702404823, 2721.2801839447243, 0.008, -0.016, 0.97, 192.0, 0.0, 0.0, 0.0, 0.0, 0.0, 0.0, 0.0, 0.0, 0.0, 1.684835368978667E9, 0.0, 2023-05-23 11:49:28.978
92.0, 13689.415298630633, 7019.2077182778985, 25164.845605474187, -5100.489270745429, 27453.95481037555, 23690.457485968767, 21357.337696234907, 2680.734119502797, 0.008, -0.016, 0.97, 192.0, 0.0, 0.0, 0.0, 0.0, 0.0, 0.0, 0.0, 0.0, 0.0, 1.684835368978672E9, 0.0, 2023-05-23 11:49:28.978
93.0, 13696.120821967224, 7021.375837490063, 25174.7921317568, -5098.254096299898, 27437.168650289615, 23693.519674959145, 21356.711847390157, 2681.963465447839, 0.008, -0.016, 0.97, 192.0, 0.0, 0.0, 0.0, 0.0, 0.0, 0.0, 0.0, 0.0, 0.0, 1.684835368978677E9, 0.0, 2023-05-23 11:49:28.978
94.0, 13689.437650375086, 7013.329209486153, 25185.140989439606, -5104.601991725206, 27467.969354149027, 23699.442887239802, 21375.50966447707, 2698.7272737893195, 0.008, -0.016, 0.97, 192.0, 0.0, 0.0, 0.0, 0.0, 0.0, 0.0, 0.0, 0.0, 0.0, 1.684835368978682E9, 0.0, 2023-05-23 11:49:28.978
95.0, 13684.676728806107, 7011.094035040622, 25183.576367327736, -5098.410558511086, 27482.20741536706, 23693.139695303405, 21390.977071640144, 2710.4842913728107, 0.006, -0.016, 0.968, 192.0, 0.0, 48.0, 255.0, 128.0, 30.0, 64.0, 0.0, 0.0, 0.0, 1.684835368978686E9, 0.0, 2023-05-23 11:49:28.978
96.0, 13695.919656267126, 7024.572136947172, 25185.476265606438, -5093.448471242007, 27496.758401007464, 23688.44582896779, 21401.79531595651, 2716.9886490093054, 0.006, -0.016, 0.968, 192.0, 0.0, 0.0, 0.0, 0.0, 0.0, 0.0, 0.0, 0.0, 0.0, 1.684835368978691E9, 0.0, 2023-05-23 11:49:28.978
97.0, 13708.57074362883, 7034.608070207605, 25181.02826845983, -5085.871229871658, 27466.091807614783, 23693.65378542588, 21387.75842043858, 2703.197622680381, 0.006, -0.016, 0.968, 192.0, 0.0, 0.0, 0.0, 0.0, 0.0, 0.0, 0.0, 0.0, 0.0, 1.684835368978696E9, 0.0, 2023-05-23 11:49:28.978
98.0, 13712.683464608606, 7038.139645831543, 25188.426695874536, -5081.24441876941, 27461.934383146094, 23701.02986109613, 21381.879911646833, 2708.2491169272803, 0.006, -0.016, 0.968, 192.0, 0.0, 0.0, 0.0, 0.0, 0.0, 0.0, 0.0, 0.0, 0.0, 1.684835368978701E9, 0.0, 2023-05-23 11:49:28.978
99.0, 13709.241295962489, 7036.060933597199, 25196.22745468944, -5081.177363536044, 27482.341525833792, 23703.68971868631, 21384.718583192658, 2713.5911838520988, 0.006, -0.016, 0.968, 192.0, 0.0, 0.0, 0.0, 0.0, 0.0, 0.0, 0.0, 0.0, 0.0, 1.684835368978705E9, 0.0, 2023-05-23 11:49:28.978
100.0, 13694.645606833174, 7019.185366533443, 25188.35964064117, -5093.940209620025, 27485.24725261298, 23703.30973903057, 21391.066478617966, 2722.5542333786766, 0.006, -0.016, 0.968, 192.0, 0.0, 0.0, 0.0, 0.0, 0.0, 0.0, 0.0, 0.0, 0.0, 1.68483536897871E9, 0.0, 2023-05-23 11:49:28.978
101.0, 13693.170391699123, 7011.250497251809, 25174.9932974569, -5102.098596346212, 27497.987746952505, 23704.203808808783, 21402.37646131235, 2730.1091230045704, 0.006, -0.016, 0.968, 192.0, 0.0, 0.0, 0.0, 0.0, 0.0, 0.0, 0.0, 0.0, 0.0, 1.684835368978715E9, 0.0, 2023-05-23 11:49:28.978
102.0, 13702.021682503426, 7019.520642700272, 25165.806730485765, -5079.411575724074, 27457.95577263305, 23703.220332052748, 21386.685536704725, 2709.5678698501433, 0.006, -0.016, 0.968, 192.0, 0.0, 0.0, 0.0, 0.0, 0.0, 0.0, 0.0, 0.0, 0.0, 1.68483536897872E9, 0.0, 2023-05-23 11:49:28.978
103.0, 13699.920618524626, 7023.722770657871, 25175.820312001742, -5074.225971010444, 27450.289124284882, 23708.115364088462, 21387.892530905312, 2721.3025356891794, 0.006, -0.016, 0.968, 192.0, 0.0, 0.0, 0.0, 0.0, 0.0, 0.0, 0.0, 0.0, 0.0, 1.684835368978724E9, 0.0, 2023-05-23 11:49:28.978
104.0, 13693.907999266148, 7020.012381078289, 25186.526797595838, -5074.471840199451, 27464.57188899182, 23708.852971655488, 21389.837132672925, 2713.568832107643, 0.006, -0.016, 0.968, 192.0, 0.0, 0.0, 0.0, 0.0, 0.0, 0.0, 0.0, 0.0, 0.0, 1.684835368978729E9, 0.0, 2023-05-23 11:49:28.978
105.0, 13694.176220199612, 7014.402093220007, 25189.879559264133, -5090.498040973907, 27466.561194248345, 23711.378718778935, 21386.17144658225, 2711.4007128954786, 0.012, -0.014, 0.968, 192.0, 0.0, 96.0, 255.0, 144.0, 30.0, 64.0, 0.0, 0.0, 0.0, 1.684835369038097E9, 0.0, 2023-05-23 11:49:29.038
106.0, 13699.339473168788, 7014.715017642381, 25184.09045745021, -5103.774977180359, 27483.30265084537, 23704.896712886897, 21388.8983594058, 2717.9944775097943, 0.012, -0.014, 0.968, 192.0, 0.0, 0.0, 0.0, 0.0, 0.0, 0.0, 0.0, 0.0, 0.0, 1.684835369038114E9, 0.0, 2023-05-23 11:49:29.038
107.0, 13705.441499405088, 7022.426369479463, 25176.915547480054, -5095.169555565066, 27448.255115539447, 23699.30877677307, 21377.76719066706, 2702.9964569802833, 0.012, -0.014, 0.968, 192.0, 0.0, 0.0, 0.0, 0.0, 0.0, 0.0, 0.0, 0.0, 0.0, 1.684835369038174E9, 0.0, 2023-05-23 11:49:29.038
108.0, 13699.764156313438, 7020.370008989574, 25181.587062071212, -5088.151107806099, 27431.938342087073, 23700.314605273557, 21375.152036565785, 2708.2044134383696, 0.012, -0.014, 0.968, 192.0, 0.0, 0.0, 0.0, 0.0, 0.0, 0.0, 0.0, 0.0, 0.0, 1.68483536903818E9, 0.0, 2023-05-23 11:49:29.038
109.0, 13697.707795823551, 7019.542994444728, 25190.639518575612, -5091.973256107957, 27453.798348164364, 23701.92393087434, 21379.689440690214, 2705.9915907372942, 0.012, -0.014, 0.968, 192.0, 0.0, 0.0, 0.0, 0.0, 0.0, 0.0, 0.0, 0.0, 0.0, 1.684835369038186E9, 0.0, 2023-05-23 11:49:29.038
110.0, 13702.580476114808, 7025.443854980928, 25197.210931445472, -5092.062663085779, 27467.00822913745, 23700.851047140488, 21379.309461034474, 2706.5280326042216, 0.012, -0.014, 0.968, 192.0, 0.0, 0.0, 0.0, 0.0, 0.0, 0.0, 0.0, 0.0, 0.0, 1.684835369038191E9, 0.0, 2023-05-23 11:49:29.038
111.0, 13706.38027267221, 7030.651811439016, 25194.059335477275, -5087.43585198353, 27483.459113056557, 23698.72763141723, 21384.875045403845, 2719.000306010283, 0.012, -0.014, 0.968, 192.0, 0.0, 0.0, 0.0, 0.0, 0.0, 0.0, 0.0, 0.0, 0.0, 1.684835369038196E9, 0.0, 2023-05-23 11:49:29.038
112.0, 13712.549354141875, 7041.090076099644, 25189.32076565275, -5078.584561179228, 27450.24442079597, 23698.615872694954, 21374.637946443316, 2709.098483216582, 0.012, -0.014, 0.968, 192.0, 0.0, 0.0, 0.0, 0.0, 0.0, 0.0, 0.0, 0.0, 0.0, 1.684835369038201E9, 0.0, 2023-05-23 11:49:29.038
113.0, 13714.046921020381, 7041.559462733205, 25197.322690167748, -5074.538895432817, 27438.755624145942, 23706.34957627649, 21370.726391163636, 2715.133454219515, 0.012, -0.014, 0.968, 192.0, 0.0, 0.0, 0.0, 0.0, 0.0, 0.0, 0.0, 0.0, 0.0, 1.684835369038205E9, 0.0, 2023-05-23 11:49:29.038
114.0, 13708.928371540114, 7035.502139985817, 25204.85522804919, -5084.016035081868, 27462.046141868374, 23713.21156182427, 21373.341545264906, 2708.942021005395, 0.012, -0.014, 0.968, 192.0, 0.0, 0.0, 0.0, 0.0, 0.0, 0.0, 0.0, 0.0, 0.0, 1.68483536903821E9, 0.0, 2023-05-23 11:49:29.038
115.0, 13706.156755227657, 7027.097884070621, 25202.84357104821, -5075.410613466574, 27466.471787270522, 23711.758698434674, 21379.085943589922, 2713.8147012966515, 0.004, -0.014, 0.97, 192.0, 0.0, 32.0, 255.0, 144.0, 30.0, 80.0, 0.0, 0.0, 0.0, 1.684835369038216E9, 0.0, 2023-05-23 11:49:29.038
116.0, 13702.80399355936, 7024.460378224895, 25188.404344130082, -5070.806154108782, 27474.786636207897, 23705.947244876297, 21394.70981296418, 2730.6008613825875, 0.004, -0.014, 0.97, 192.0, 0.0, 0.0, 0.0, 0.0, 0.0, 0.0, 0.0, 0.0, 0.0, 1.684835369038221E9, 0.0, 2023-05-23 11:49:29.038
117.0, 13704.256856948956, 7029.444817238429, 25176.60262305768, -5086.877058372147, 27442.063682325326, 23699.576997706536, 21378.638908700814, 2709.389055894501, 0.004, -0.014, 0.97, 192.0, 0.0, 0.0, 0.0, 0.0, 0.0, 0.0, 0.0, 0.0, 0.0, 1.684835369038226E9, 0.0, 2023-05-23 11:49:29.038
118.0, 13709.464813407043, 7032.775227162269, 25187.063239462765, -5079.858610613181, 27436.60985667823, 23702.192151807805, 21377.096638333398, 2704.471672114333, 0.004, -0.014, 0.97, 192.0, 0.0, 0.0, 0.0, 0.0, 0.0, 0.0, 0.0, 0.0, 0.0, 1.684835369038231E9, 0.0, 2023-05-23 11:49:29.038
119.0, 13705.597961616275, 7028.170767804476, 25197.568559356758, -5076.86347685617, 27463.05197036886, 23701.096916329494, 21377.81189415597, 2699.0625499561493, 0.004, -0.014, 0.97, 192.0, 0.0, 0.0, 0.0, 0.0, 0.0, 0.0, 0.0, 0.0, 0.0, 1.684835369038235E9, 0.0, 2023-05-23 11:49:29.038
120.0, 13698.735976068494, 7022.448721223917, 25192.94174825451, -5088.285218272832, 27458.62632496671, 23700.135791317916, 21372.291013275506, 2704.4046168809673, 0.004, -0.014, 0.97, 192.0, 0.0, 0.0, 0.0, 0.0, 0.0, 0.0, 0.0, 0.0, 0.0, 1.684835369097789E9, 0.0, 2023-05-23 11:49:29.097
121.0, 13698.847734790772, 7023.007514835301, 25183.285794649815, -5090.878020629647, 27477.71471473154, 23699.73345991772, 21377.23074880013, 2721.1460734779926, 0.004, -0.014, 0.97, 192.0, 0.0, 0.0, 0.0, 0.0, 0.0, 0.0, 0.0, 0.0, 0.0, 1.684835369097797E9, 0.0, 2023-05-23 11:49:29.097
122.0, 13705.307388938356, 7025.689724169937, 25171.953460210974, -5094.141375320122, 27448.366874261723, 23693.542026703602, 21359.863443358357, 2699.263715656247, 0.004, -0.014, 0.97, 192.0, 0.0, 0.0, 0.0, 0.0, 0.0, 0.0, 0.0, 0.0, 0.0, 1.6848353690978E9, 0.0, 2023-05-23 11:49:29.097
123.0, 13708.52604013992, 7028.707209671404, 25181.430599860025, -5089.939247362524, 27440.543763702368, 23692.15621854737, 21365.764303894557, 2706.2151081818474, 0.004, -0.014, 0.97, 192.0, 0.0, 0.0, 0.0, 0.0, 0.0, 0.0, 0.0, 0.0, 0.0, 1.684835369097803E9, 0.0, 2023-05-23 11:49:29.097
124.0, 13699.205362702056, 7021.666410167982, 25187.97966098543, -5087.234686283432, 27456.90524064365, 23691.865645869453, 21367.50773996207, 2699.934267989906, 0.004, -0.014, 0.97, 192.0, 0.0, 0.0, 0.0, 0.0, 0.0, 0.0, 0.0, 0.0, 0.0, 1.684835369097806E9, 0.0, 2023-05-23 11:49:29.097
125.0, 13692.52219110992, 7015.1620525314875, 25184.135160939117, -5102.031541112846, 27453.10544408625, 23687.06002081156, 21362.389190481805, 2690.5018318297666, 0.002, -0.014, 0.97, 192.0, 0.0, 16.0, 255.0, 144.0, 30.0, 80.0, 0.0, 0.0, 0.0, 1.684835369097809E9, 0.0, 2023-05-23 11:49:29.097
126.0, 13689.795278286372, 7012.949229830412, 25175.708553279466, -5102.72444519096, 27466.561194248345, 23679.50513118567, 21372.358068508875, 2698.615515067043, 0.002, -0.014, 0.97, 192.0, 0.0, 0.0, 0.0, 0.0, 0.0, 0.0, 0.0, 0.0, 0.0, 1.684835369097812E9, 0.0, 2023-05-23 11:49:29.097
127.0, 13700.077080735813, 7021.778168890259, 25170.07591367673, -5081.020901324857, 27442.309551514336, 23681.025049808628, 21361.361010236862, 2684.802136993663, 0.002, -0.014, 0.97, 192.0, 0.0, 0.0, 0.0, 0.0, 0.0, 0.0, 0.0, 0.0, 0.0, 1.684835369097815E9, 0.0, 2023-05-23 11:49:29.097
128.0, 13711.275304707922, 7028.684857926948, 25184.85041676169, -5082.697282159005, 27435.224048522003, 23699.17466630634, 21366.054876572478, 2701.0518552126714, 0.002, -0.014, 0.97, 192.0, 0.0, 0.0, 0.0, 0.0, 0.0, 0.0, 0.0, 0.0, 0.0, 1.684835369097831E9, 0.0, 2023-05-23 11:49:29.097
129.0, 13713.823403575827, 7032.372895762074, 25203.268254192863, -5074.069508799256, 27463.543708746878, 23708.003605366186, 21374.07915283193, 2707.1538814489704, 0.002, -0.014, 0.97, 192.0, 0.0, 0.0, 0.0, 0.0, 0.0, 0.0, 0.0, 0.0, 0.0, 1.684835369097834E9, 0.0, 2023-05-23 11:49:29.097
130.0, 13712.750519841973, 7033.557538218205, 25203.290605937316, -5071.5884651647175, 27461.040313367885, 23709.45646875578, 21376.671955188747, 2717.3686286650454, 0.002, -0.014, 0.97, 192.0, 0.0, 0.0, 0.0, 0.0, 0.0, 0.0, 0.0, 0.0, 0.0, 1.684835369097837E9, 0.0, 2023-05-23 11:49:29.097
131.0, 13710.984732030003, 7028.349581760119, 25188.80667553028, -5081.646750169605, 27467.25409832646, 23704.472029742246, 21382.28224304703, 2726.868120058551, 0.002, -0.014, 0.97, 192.0, 0.0, 0.0, 0.0, 0.0, 0.0, 0.0, 0.0, 0.0, 0.0, 1.68483536909784E9, 0.0, 2023-05-23 11:49:29.097
132.0, 13714.404548931665, 7029.489520727339, 25177.608451558168, -5088.8440118842145, 27433.81588862132, 23698.5935209505, 21364.937289349713, 2702.0129802242495, 0.002, -0.014, 0.97, 192.0, 0.0, 0.0, 0.0, 0.0, 0.0, 0.0, 0.0, 0.0, 0.0, 1.684835369097843E9, 0.0, 2023-05-23 11:49:29.097
133.0, 13705.687368594095, 7022.225203779364, 25180.670640548546, -5085.334788004731, 27422.43885069357, 23692.536198203114, 21361.76334163706, 2695.195698165381, 0.002, -0.014, 0.97, 192.0, 0.0, 0.0, 0.0, 0.0, 0.0, 0.0, 0.0, 0.0, 0.0, 1.684835369097846E9, 0.0, 2023-05-23 11:49:29.097
134.0, 13697.66309233464, 7015.564383931683, 25191.89121626511, -5080.819735624759, 27460.30270580086, 23696.425401738335, 21380.315289534963, 2704.4940238587888, 0.002, -0.014, 0.97, 192.0, 0.0, 0.0, 0.0, 0.0, 0.0, 0.0, 0.0, 0.0, 0.0, 1.684835369097849E9, 0.0, 2023-05-23 11:49:29.097
135.0, 13701.708758081051, 7020.705285156404, 25199.624919846647, -5077.377566978642, 27457.173461577117, 23704.6955471868, 21377.297804033497, 2707.042122726694, 0.004, -0.006, 0.97, 192.0, 0.0, 32.0, 255.0, 208.0, 30.0, 80.0, 0.0, 0.0, 0.0, 1.684835369158089E9, 0.0, 2023-05-23 11:49:29.158
136.0, 13701.105260980758, 7019.408883977996, 25193.634652332625, -5084.552476948796, 27472.171482106627, 23701.70041342979, 21380.18117906823, 2712.227727440325, 0.004, -0.006, 0.97, 192.0, 0.0, 0.0, 0.0, 0.0, 0.0, 0.0, 0.0, 0.0, 0.0, 1.684835369158108E9, 0.0, 2023-05-23 11:49:29.158
137.0, 13705.776775571916, 7027.880195126557, 25184.02340221684, -5088.8440118842145, 27443.136566059184, 23695.73249766022, 21375.621423199347, 2704.806948281163, 0.004, -0.006, 0.97, 192.0, 0.0, 0.0, 0.0, 0.0, 0.0, 0.0, 0.0, 0.0, 0.0, 1.684835369158114E9, 0.0, 2023-05-23 11:49:29.158
138.0, 13712.303484952867, 7034.116331829588, 25194.50637036638, -5066.872247084648, 27433.927647343597, 23697.632395938923, 21382.88574014732, 2720.5425763776993, 0.004, -0.006, 0.97, 192.0, 0.0, 0.0, 0.0, 0.0, 0.0, 0.0, 0.0, 0.0, 0.0, 1.684835369158118E9, 0.0, 2023-05-23 11:49:29.158
139.0, 13703.943932526581, 7022.24755552382, 25203.38001291514, -5078.159878034578, 27459.363932533735, 23699.331128517526, 21386.439667515715, 2717.502739131777, 0.004, -0.006, 0.97, 192.0, 0.0, 0.0, 0.0, 0.0, 0.0, 0.0, 0.0, 0.0, 0.0, 1.684835369158122E9, 0.0, 2023-05-23 11:49:29.158
140.0, 13698.020720245924, 7015.542032187228, 25198.149704712596, -5089.648674684605, 27458.715731944532, 23697.341823261002, 21375.777885410535, 2707.9138407604505, 0.004, -0.006, 0.97, 192.0, 0.0, 0.0, 0.0, 0.0, 0.0, 0.0, 0.0, 0.0, 0.0, 1.684835369158125E9, 0.0, 2023-05-23 11:49:29.158
141.0, 13694.355034155255, 7013.731540886348, 25190.818332531257, -5105.719578947971, 27474.898394930173, 23691.619776680443, 21383.913920392268, 2717.703904831875, 0.004, -0.006, 0.97, 192.0, 0.0, 0.0, 0.0, 0.0, 0.0, 0.0, 0.0, 0.0, 0.0, 1.684835369158128E9, 0.0, 2023-05-23 11:49:29.158
142.0, 13695.629083589207, 7019.0065525778, 25180.871806248644, -5090.855668885192, 27444.120042815215, 23689.11638130145, 21371.240481286106, 2694.256924898258, 0.004, -0.006, 0.97, 192.0, 0.0, 0.0, 0.0, 0.0, 0.0, 0.0, 0.0, 0.0, 0.0, 1.684835369158132E9, 0.0, 2023-05-23 11:49:29.158
143.0, 13697.461926634542, 7018.805386877702, 25186.683259807025, -5078.115174545667, 27428.406766463133, 23686.948262089285, 21355.951888078678, 2678.9906834352832, 0.004, -0.006, 0.97, 192.0, 0.0, 0.0, 0.0, 0.0, 0.0, 0.0, 0.0, 0.0, 0.0, 1.684835369158135E9, 0.0, 2023-05-23 11:49:29.158
144.0, 13702.334606925799, 7019.364180489085, 25200.94367276951, -5082.250247269899, 27451.920801630116, 23687.708221400764, 21359.997553825087, 2679.772994491219, 0.004, -0.006, 0.97, 192.0, 0.0, 0.0, 0.0, 0.0, 0.0, 0.0, 0.0, 0.0, 0.0, 1.684835369158139E9, 0.0, 2023-05-23 11:49:29.158
145.0, 13703.251028448467, 7020.414712478485, 25207.31391993927, -5077.332863489731, 27459.4309877671, 23696.55951220507, 21369.251176029586, 2702.862346513551, 0.002, -0.008, 0.966, 192.0, 0.0, 16.0, 255.0, 192.0, 30.0, 48.0, 0.0, 0.0, 0.0, 1.684835369158142E9, 0.0, 2023-05-23 11:49:29.158
146.0, 13702.602827859262, 7020.973506089867, 25205.123448982653, -5089.380453751141, 27476.015982152938, 23691.865645869453, 21384.47271400365, 2728.097466003593, 0.002, -0.008, 0.966, 192.0, 0.0, 0.0, 0.0, 0.0, 0.0, 0.0, 0.0, 0.0, 0.0, 1.684835369158147E9, 0.0, 2023-05-23 11:49:29.158
147.0, 13703.787470315394, 7023.678067168959, 25190.304242408783, -5093.090843330722, 27447.115176572228, 23682.187340520304, 21374.257966787573, 2710.4395878839005, 0.002, -0.008, 0.966, 192.0, 0.0, 0.0, 0.0, 0.0, 0.0, 0.0, 0.0, 0.0, 0.0, 1.68483536915815E9, 0.0, 2023-05-23 11:49:29.158
148.0, 13712.281133208411, 7030.428293994462, 25198.105001223685, -5080.6856251580275, 27447.249287038958, 23684.82484636603, 21370.212301041163, 2705.321038403635, 0.002, -0.008, 0.966, 192.0, 0.0, 0.0, 0.0, 0.0, 0.0, 0.0, 0.0, 0.0, 0.0, 1.684835369158154E9, 0.0, 2023-05-23 11:49:29.158
149.0, 13714.985694287503, 7029.735389916348, 25211.493696152414, -5078.5175059458625, 27462.046141868374, 23692.938529603307, 21372.402771997782, 2701.2753726572246, 0.002, -0.008, 0.966, 192.0, 0.0, 0.0, 0.0, 0.0, 0.0, 0.0, 0.0, 0.0, 0.0, 1.684835369158158E9, 0.0, 2023-05-23 11:49:29.158
150.0, 13713.532830897908, 7028.416636993485, 25214.71234735398, -5071.677872142538, 27455.921763887618, 23702.70624193028, 21370.54757720799, 2704.471672114333, 0.002, -0.008, 0.966, 192.0, 0.0, 0.0, 0.0, 0.0, 0.0, 0.0, 0.0, 0.0, 0.0, 1.684835369218408E9, 0.0, 2023-05-23 11:49:29.218
151.0, 13712.2364297195, 7028.506043971306, 25204.341137926716, -5064.100630772189, 27472.52911001791, 23704.337919275513, 21382.729277936134, 2717.860367043062, 0.002, -0.008, 0.966, 192.0, 0.0, 0.0, 0.0, 0.0, 0.0, 0.0, 0.0, 0.0, 0.0, 1.684835369218417E9, 0.0, 2023-05-23 11:49:29.218
152.0, 13721.043017034892, 7039.078419098666, 25196.294509922805, -5073.8236396102475, 27452.30078128586, 23700.6945849293, 21374.861463887868, 2703.421140124934, 0.002, -0.008, 0.966, 192.0, 0.0, 0.0, 0.0, 0.0, 0.0, 0.0, 0.0, 0.0, 0.0, 1.68483536921842E9, 0.0, 2023-05-23 11:49:29.218
153.0, 13728.62025840524, 7047.907358158513, 25209.303225195796, -5073.778936121337, 27440.543763702368, 23701.92393087434, 21379.510626734573, 2712.1830239514143, 0.002, -0.008, 0.966, 192.0, 0.0, 0.0, 0.0, 0.0, 0.0, 0.0, 0.0, 0.0, 0.0, 1.684835369218424E9, 0.0, 2023-05-23 11:49:29.218
154.0, 13721.802976346371, 7041.827683666669, 25219.450917178503, -5075.902351844591, 27453.820699908818, 23700.20284655128, 21385.009155870575, 2713.7029425743754, 0.002, -0.008, 0.966, 192.0, 0.0, 0.0, 0.0, 0.0, 0.0, 0.0, 0.0, 0.0, 0.0, 1.684835369218427E9, 0.0, 2023-05-23 11:49:29.218
155.0, 13714.270438464933, 7031.3000120282195, 25213.192428731018, -5061.820752837748, 27450.713807429533, 23703.041518097107, 21384.048030858998, 2712.831224540618, 0.004, -0.008, 0.97, 192.0, 0.0, 32.0, 255.0, 192.0, 30.0, 80.0, 0.0, 0.0, 0.0, 1.68483536921843E9, 0.0, 2023-05-23 11:49:29.218
156.0, 13708.056653506357, 7024.2592125247975, 25200.340175669215, -5063.072450527246, 27476.373610064224, 23702.326262274535, 21398.308443821483, 2726.7340095918194, 0.004, -0.008, 0.97, 192.0, 0.0, 0.0, 0.0, 0.0, 0.0, 0.0, 0.0, 0.0, 0.0, 1.684835369218433E9, 0.0, 2023-05-23 11:49:29.218
157.0, 13709.733034340506, 7024.482729969351, 25185.252748161885, -5087.391148494619, 27449.75268241795, 23694.369041248447, 21384.875045403845, 2704.829300025618, 0.004, -0.008, 0.97, 192.0, 0.0, 0.0, 0.0, 0.0, 0.0, 0.0, 0.0, 0.0, 0.0, 1.684835369218437E9, 0.0, 2023-05-23 11:49:29.218
158.0, 13712.079967508313, 7027.187291048443, 25192.47236162095, -5070.269712241854, 27426.28335073988, 23693.11734355895, 21369.050010329487, 2699.4872331008, 0.004, -0.008, 0.97, 192.0, 0.0, 0.0, 0.0, 0.0, 0.0, 0.0, 0.0, 0.0, 0.0, 1.68483536921844E9, 0.0, 2023-05-23 11:49:29.218
