%OpenBCI Raw EEG Data
%Number of channels = 8
%Sample Rate = 250 Hz
%Board = OpenBCI_GUI$BoardCytonSerial
Sample Index, EXG Channel 0, EXG Channel 1, EXG Channel 2, EXG Channel 3, EXG Channel 4, EXG Channel 5, EXG Channel 6, EXG Channel 7, Accel Channel 0, Accel Channel 1, Accel Channel 2, Other, Other, Other, Other, Other, Other, Other, Analog Channel 0, Analog Channel 1, Analog Channel 2, Timestamp, Other, Timestamp (Formatted)
0.0, 0.0, 0.0, 0.0, 0.0, 0.0, 0.0, 0.0, 0.0, -0.002, -0.01, 0.974, 192.0, 255.0, 240.0, 255.0, 176.0, 30.0, 112.0, 0.0, 0.0, 0.0, 1.686054021878508E9, 0.0, 2023-06-06 14:20:21.878
1.0, 187500.0, -187500.02235174447, 187500.0, -12706.005597830486, 20365.814312197486, 7101.059806473232, 1338.713030661706, -3156.111020578268, -0.002, -0.01, 0.974, 192.0, 0.0, 0.0, 0.0, 0.0, 0.0, 0.0, 0.0, 0.0, 0.0, 1.686054021894666E9, 0.0, 2023-06-06 14:20:21.894
2.0, 187500.0, -187500.02235174447, 187500.0, -12721.875336393756, 20393.79869625553, 7169.880827651123, 1436.1442847423893, -3118.5153864044414, -0.002, -0.01, 0.974, 192.0, 0.0, 0.0, 0.0, 0.0, 0.0, 0.0, 0.0, 0.0, 0.0, 1.68605402189764E9, 0.0, 2023-06-06 14:20:21.897
3.0, 187500.0, -187500.02235174447, 187500.0, -12736.51572901198, 20457.18824353078, 7188.6115895046705, 1473.963436360769, -2995.893716322627, -0.002, -0.01, 0.974, 192.0, 0.0, 0.0, 0.0, 0.0, 0.0, 0.0, 0.0, 0.0, 0.0, 1.686054021901655E9, 0.0, 2023-06-06 14:20:21.901
4.0, 187500.0, -187500.02235174447, 187500.0, -12745.210557605096, 20434.456519419735, 7128.820673086724, 1402.482557592697, -2993.5244314103643, -0.002, -0.01, 0.974, 192.0, 0.0, 0.0, 0.0, 0.0, 0.0, 0.0, 0.0, 0.0, 0.0, 1.686054021904664E9, 0.0, 2023-06-06 14:20:21.904
5.0, 187500.0, -187500.02235174447, 187500.0, -12724.781063172944, 20375.26910010208, 7074.729451504881, 1319.1776060077675, -3008.0977687952245, -0.002, -0.01, 0.974, 192.0, 0.0, 0.0, 0.0, 0.0, 0.0, 0.0, 0.0, 0.0, 0.0, 1.686054021908644E9, 0.0, 2023-06-06 14:20:21.908
6.0, 187500.0, -187500.02235174447, 187500.0, -12701.199972772596, 20397.37497536838, 7097.751748293847, 1352.3699465238985, -2961.1591054390797, -0.002, -0.01, 0.974, 192.0, 0.0, 0.0, 0.0, 0.0, 0.0, 0.0, 0.0, 0.0, 0.0, 1.686054021912654E9, 0.0, 2023-06-06 14:20:21.912
7.0, 187500.0, -187500.02235174447, 187500.0, -12698.629522160236, 20478.176531574314, 7158.101458323176, 1437.1277614984228, -2902.753997177362, -0.002, -0.01, 0.974, 192.0, 0.0, 0.0, 0.0, 0.0, 0.0, 0.0, 0.0, 0.0, 0.0, 1.686054021916668E9, 0.0, 2023-06-06 14:20:21.916
8.0, 187500.0, -187500.02235174447, 187500.0, -12712.979342100543, 20588.772963139174, 7175.379356787129, 1463.6145786779618, -2718.106236232071, -0.006, -0.014, 0.976, 192.0, 255.0, 208.0, 255.0, 144.0, 30.0, 128.0, 0.0, 0.0, 0.0, 1.686054021924145E9, 0.0, 2023-06-06 14:20:21.924
9.0, 187500.0, -187500.02235174447, 187500.0, -12721.271839293462, 20617.673768719884, 7119.611754371137, 1386.769281240616, -2675.2355903667917, -0.006, -0.014, 0.976, 192.0, 0.0, 0.0, 0.0, 0.0, 0.0, 0.0, 0.0, 0.0, 0.0, 1.686054021924645E9, 0.0, 2023-06-06 14:20:21.924
10.0, 187500.0, -187500.02235174447, 187500.0, -12710.051263576897, 20514.833392481018, 7060.156114120021, 1288.8015852930052, -2834.2682521663014, -0.006, -0.014, 0.976, 192.0, 0.0, 0.0, 0.0, 0.0, 0.0, 0.0, 0.0, 0.0, 0.0, 1.686054021927792E9, 0.0, 2023-06-06 14:20:21.927
11.0, 187500.0, -187500.02235174447, 187500.0, -12701.13291753923, 20499.589502762497, 7088.565181322716, 1313.7908355940385, -2864.219589736413, -0.006, -0.014, 0.976, 192.0, 0.0, 0.0, 0.0, 0.0, 0.0, 0.0, 0.0, 0.0, 0.0, 1.686054021932808E9, 0.0, 2023-06-06 14:20:21.932
12.0, 187500.0, -187500.02235174447, 187500.0, -12707.167888542162, 20574.780771110152, 7162.415345003051, 1412.7196565532277, -2838.2021591904354, -0.006, -0.014, 0.976, 192.0, 0.0, 0.0, 0.0, 0.0, 0.0, 0.0, 0.0, 0.0, 0.0, 1.686054021936775E9, 0.0, 2023-06-06 14:20:21.936
13.0, 187500.0, -187500.02235174447, 187500.0, -12725.496318995514, 20605.827344158573, 7182.598970246193, 1439.5864533885067, -2847.433429650477, -0.006, -0.014, 0.976, 192.0, 0.0, 0.0, 0.0, 0.0, 0.0, 0.0, 0.0, 0.0, 0.0, 1.686054021940776E9, 0.0, 2023-06-06 14:20:21.940
14.0, 187500.0, -187500.02235174447, 187500.0, -12737.700371468112, 20554.64184935592, 7120.528175893805, 1357.2426268151555, -2916.500320017376, -0.006, -0.014, 0.976, 192.0, 0.0, 0.0, 0.0, 0.0, 0.0, 0.0, 0.0, 0.0, 0.0, 1.686054021944788E9, 0.0, 2023-06-06 14:20:21.944
15.0, 187500.0, -187500.02235174447, 187500.0, -12714.387502001227, 20405.063975461006, 7065.252311855831, 1273.0436054520137, -3137.3579069802654, -0.006, -0.014, 0.976, 192.0, 0.0, 0.0, 0.0, 0.0, 0.0, 0.0, 0.0, 0.0, 0.0, 1.68605402194779E9, 0.0, 2023-06-06 14:20:21.947
16.0, 187500.0, -187500.02235174447, 187500.0, -12710.006560087986, 20334.41011123778, 7090.062748201221, 1309.253431469611, -3197.685265265139, -0.006, -0.014, 0.976, 192.0, 0.0, 0.0, 0.0, 0.0, 0.0, 0.0, 0.0, 0.0, 0.0, 1.686054021951788E9, 0.0, 2023-06-06 14:20:21.951
17.0, 187500.0, -187500.02235174447, 187500.0, -12711.794699644412, 20420.911362279818, 7154.3910687435955, 1395.7993860005602, -3040.4183912775984, -0.006, -0.014, 0.976, 192.0, 0.0, 0.0, 0.0, 0.0, 0.0, 0.0, 0.0, 0.0, 0.0, 1.686054021955767E9, 0.0, 2023-06-06 14:20:21.955
18.0, 187500.0, -187500.02235174447, 187500.0, -12728.580859730348, 20458.328182498, 7167.288025294308, 1417.547633355574, -2980.023977759359, -0.002, -0.01, 0.976, 192.0, 255.0, 240.0, 255.0, 176.0, 30.0, 128.0, 0.0, 0.0, 0.0, 1.686054021959768E9, 0.0, 2023-06-06 14:20:21.959
19.0, 187500.0, -187500.02235174447, 187500.0, -12759.493322312037, 20433.987132786173, 7102.803242540746, 1341.8199231409935, -3001.1910797585347, -0.002, -0.01, 0.976, 192.0, 0.0, 0.0, 0.0, 0.0, 0.0, 0.0, 0.0, 0.0, 0.0, 1.686054021964911E9, 0.0, 2023-06-06 14:20:21.964
20.0, 187500.0, -187500.02235174447, 187500.0, -12734.794644688922, 20369.99408841063, 7049.047297125733, 1257.2856256110222, -3029.2872225388555, -0.002, -0.01, 0.976, 192.0, 0.0, 0.0, 0.0, 0.0, 0.0, 0.0, 0.0, 0.0, 0.0, 1.686054021968887E9, 0.0, 2023-06-06 14:20:21.968
21.0, 187500.0, -187500.02235174447, 187500.0, -12710.967685099566, 20379.18065538176, 7083.178410908987, 1293.4954516286198, -2980.314550437278, -0.002, -0.01, 0.976, 192.0, 0.0, 0.0, 0.0, 0.0, 0.0, 0.0, 0.0, 0.0, 0.0, 1.686054021972971E9, 0.0, 2023-06-06 14:20:21.972
22.0, 187500.0, -187500.02235174447, 187500.0, -12727.239755063028, 20538.146261947903, 7157.60971994516, 1396.4475865897641, -2740.25681498728, -0.002, -0.01, 0.976, 192.0, 0.0, 0.0, 0.0, 0.0, 0.0, 0.0, 0.0, 0.0, 0.0, 1.686054021975885E9, 0.0, 2023-06-06 14:20:21.975
23.0, 187500.0, -187500.02235174447, 187500.0, -12745.6575924942, 20649.14502491296, 7177.949807399489, 1423.895528780881, -2636.768238159208, -0.002, -0.01, 0.976, 192.0, 0.0, 0.0, 0.0, 0.0, 0.0, 0.0, 0.0, 0.0, 0.0, 1.686054021979902E9, 0.0, 2023-06-06 14:20:21.979
24.0, 187500.0, -187500.02235174447, 187500.0, -12739.399104046715, 20597.69130917684, 7125.065580018232, 1356.482667503675, -2794.8397749471396, -0.002, -0.01, 0.976, 192.0, 0.0, 0.0, 0.0, 0.0, 0.0, 0.0, 0.0, 0.0, 0.0, 1.686054021983913E9, 0.0, 2023-06-06 14:20:21.983
25.0, 187500.0, -187500.02235174447, 187500.0, -12707.950199598099, 20512.039424424103, 7073.120125904099, 1276.038739209025, -2890.5275929603094, -0.002, -0.01, 0.976, 192.0, 0.0, 0.0, 0.0, 0.0, 0.0, 0.0, 0.0, 0.0, 0.0, 1.686054021987922E9, 0.0, 2023-06-06 14:20:21.987
26.0, 187500.0, -187500.02235174447, 187500.0, -12702.026987317442, 20499.522447529132, 7092.610847069126, 1302.7490738331169, -2894.1262238176137, -0.002, -0.01, 0.976, 192.0, 0.0, 0.0, 0.0, 0.0, 0.0, 0.0, 0.0, 0.0, 0.0, 1.686054021992887E9, 0.0, 2023-06-06 14:20:21.992
27.0, 187500.0, -187500.02235174447, 187500.0, -12713.42637698965, 20571.495064675222, 7158.459086234461, 1397.5875255569847, -2860.5762553901977, -0.002, -0.01, 0.976, 192.0, 0.0, 0.0, 0.0, 0.0, 0.0, 0.0, 0.0, 0.0, 0.0, 1.686054021996913E9, 0.0, 2023-06-06 14:20:21.996
28.0, 187500.0, -187500.02235174447, 187500.0, -12722.434130005138, 20609.18010582687, 7183.694205724502, 1436.0772295090235, -2861.827953079695, 0.004, -0.008, 0.978, 192.0, 0.0, 32.0, 255.0, 192.0, 30.0, 144.0, 0.0, 0.0, 0.0, 1.686054022001029E9, 0.0, 2023-06-06 14:20:22.001
29.0, 187500.0, -187500.02235174447, 187500.0, -12733.252374321506, 20500.34946207398, 7128.910080064546, 1370.4748595326973, -3084.9207144881148, 0.004, -0.008, 0.978, 192.0, 0.0, 0.0, 0.0, 0.0, 0.0, 0.0, 0.0, 0.0, 0.0, 1.686054022004077E9, 0.0, 2023-06-06 14:20:22.004
30.0, 187500.0, -187500.02235174447, 187500.0, -12713.001693844997, 20348.22348931116, 7070.907303203024, 1289.2933236710219, -3223.4344748776525, 0.004, -0.008, 0.978, 192.0, 0.0, 0.0, 0.0, 0.0, 0.0, 0.0, 0.0, 0.0, 0.0, 1.686054022008033E9, 0.0, 2023-06-06 14:20:22.008
31.0, 187500.0, -187500.02235174447, 187500.0, -12693.913304080166, 20362.774474951562, 7093.683730802982, 1320.3398967194435, -3080.539772574875, 0.004, -0.008, 0.978, 192.0, 0.0, 0.0, 0.0, 0.0, 0.0, 0.0, 0.0, 0.0, 0.0, 1.686054022012032E9, 0.0, 2023-06-06 14:20:22.012
32.0, 187500.0, -187500.02235174447, 187500.0, -12701.691711150612, 20455.891842352372, 7163.46587699245, 1416.2065286882555, -2970.4574311324873, 0.004, -0.008, 0.978, 192.0, 0.0, 0.0, 0.0, 0.0, 0.0, 0.0, 0.0, 0.0, 0.0, 1.686054022016029E9, 0.0, 2023-06-06 14:20:22.016
33.0, 187500.0, -187500.02235174447, 187500.0, -12717.60615320279, 20509.133697644913, 7180.140278356109, 1448.773020359638, -2930.693677746496, 0.004, -0.008, 0.978, 192.0, 0.0, 0.0, 0.0, 0.0, 0.0, 0.0, 0.0, 0.0, 0.0, 1.686054022020028E9, 0.0, 2023-06-06 14:20:22.020
34.0, 187500.0, -187500.02235174447, 187500.0, -12736.42632203416, 20484.747944444174, 7125.289097462785, 1382.611856771929, -2957.828695515239, 0.004, -0.008, 0.978, 192.0, 0.0, 0.0, 0.0, 0.0, 0.0, 0.0, 0.0, 0.0, 0.0, 1.686054022025042E9, 0.0, 2023-06-06 14:20:22.025
35.0, 187500.0, -187500.02235174447, 187500.0, -12717.80731890289, 20410.406042385825, 7071.667262514504, 1295.1718324627677, -2985.164878984079, 0.004, -0.008, 0.978, 192.0, 0.0, 0.0, 0.0, 0.0, 0.0, 0.0, 0.0, 0.0, 0.0, 1.686054022029197E9, 0.0, 2023-06-06 14:20:22.029
36.0, 187500.0, -187500.02235174447, 187500.0, -12697.109603537274, 20473.259147794146, 7091.82853601319, 1315.0425332835357, -2783.1498125970143, 0.004, -0.008, 0.978, 192.0, 0.0, 0.0, 0.0, 0.0, 0.0, 0.0, 0.0, 0.0, 0.0, 1.686054022032197E9, 0.0, 2023-06-06 14:20:22.032
37.0, 187500.0, -187500.02235174447, 187500.0, -12704.440975718615, 20623.37346355599, 7161.007185102366, 1412.6526013198616, -2636.5000172257446, 0.004, -0.008, 0.978, 192.0, 0.0, 0.0, 0.0, 0.0, 0.0, 0.0, 0.0, 0.0, 0.0, 1.686054022036151E9, 0.0, 2023-06-06 14:20:22.036
38.0, 187500.0, -187500.02235174447, 187500.0, -12727.083292851841, 20648.51917606821, 7180.98964464541, 1446.0461075360904, -2740.8156085986625, 0.004, -0.008, 0.978, 192.0, 0.0, 0.0, 255.0, 160.0, 30.0, 96.0, 0.0, 0.0, 0.0, 1.686054022040139E9, 0.0, 2023-06-06 14:20:22.040
39.0, 187500.0, -187500.02235174447, 187500.0, -12742.729513970557, 20616.89145766395, 7136.353210968163, 1383.997664928158, -2835.1399702000585, 0.004, -0.008, 0.978, 192.0, 0.0, 0.0, 0.0, 0.0, 0.0, 0.0, 0.0, 0.0, 0.0, 1.686054022044149E9, 0.0, 2023-06-06 14:20:22.044
40.0, 187500.0, -187500.02235174447, 187500.0, -12714.454557234592, 20545.701151573798, 7090.934466234979, 1301.9891145216363, -2899.3565320201556, 0.004, -0.008, 0.978, 192.0, 0.0, 0.0, 0.0, 0.0, 0.0, 0.0, 0.0, 0.0, 0.0, 1.68605402204815E9, 0.0, 2023-06-06 14:20:22.048
41.0, 187500.0, -187500.02235174447, 187500.0, -12700.238847761018, 20523.081186185027, 7109.173489710509, 1313.9025943163151, -2901.4575959989543, 0.004, -0.008, 0.978, 192.0, 0.0, 0.0, 0.0, 0.0, 0.0, 0.0, 0.0, 0.0, 0.0, 1.686054022053175E9, 0.0, 2023-06-06 14:20:22.053
42.0, 187500.0, -187500.02235174447, 187500.0, -12700.104737294287, 20573.171445509368, 7171.154877085076, 1398.4592435907416, -2872.601493907153, 0.004, -0.008, 0.978, 192.0, 0.0, 0.0, 0.0, 0.0, 0.0, 0.0, 0.0, 0.0, 0.0, 1.686054022056167E9, 0.0, 2023-06-06 14:20:22.056
43.0, 187500.0, -187500.02235174447, 187500.0, -12696.819030859355, 20515.10161341448, 7186.711691225969, 1426.4212759043307, -3039.1219900991905, 0.004, -0.008, 0.978, 192.0, 0.0, 0.0, 0.0, 0.0, 0.0, 0.0, 0.0, 0.0, 0.0, 1.686054022060152E9, 0.0, 2023-06-06 14:20:22.060
44.0, 187500.0, -187500.02235174447, 187500.0, -12713.336970011827, 20405.04162371655, 7128.284231219796, 1369.1114031209236, -3175.065299876368, 0.004, -0.008, 0.978, 192.0, 0.0, 0.0, 0.0, 0.0, 0.0, 0.0, 0.0, 0.0, 0.0, 1.686054022064139E9, 0.0, 2023-06-06 14:20:22.064
45.0, 187500.0, -187500.02235174447, 187500.0, -12705.08917630782, 20355.241937070125, 7071.130820647576, 1294.1436522178237, -3104.1208629752236, 0.004, -0.008, 0.978, 192.0, 0.0, 0.0, 0.0, 0.0, 0.0, 0.0, 0.0, 0.0, 0.0, 1.686054022068163E9, 0.0, 2023-06-06 14:20:22.068
46.0, 187500.0, -187500.02235174447, 187500.0, -12701.89287685071, 20363.445027285223, 7086.195896410453, 1313.5449664050302, -3027.6331934491627, 0.004, -0.008, 0.978, 192.0, 0.0, 0.0, 0.0, 0.0, 0.0, 0.0, 0.0, 0.0, 0.0, 1.686054022072173E9, 0.0, 2023-06-06 14:20:22.072
47.0, 187500.0, -187500.02235174447, 187500.0, -12715.125109568253, 20441.89965032335, 7143.483417449405, 1403.287220393088, -2952.911311735071, 0.004, -0.008, 0.978, 192.0, 0.0, 0.0, 0.0, 0.0, 0.0, 0.0, 0.0, 0.0, 0.0, 1.686054022076285E9, 0.0, 2023-06-06 14:20:22.076
48.0, 187500.0, -187500.02235174447, 187500.0, -12725.675132951157, 20478.04242110758, 7158.74965891238, 1429.6622788503503, -2929.084352145714, 0.004, -0.012, 0.972, 192.0, 0.0, 32.0, 255.0, 160.0, 30.0, 96.0, 0.0, 0.0, 0.0, 1.686054022080274E9, 0.0, 2023-06-06 14:20:22.080
49.0, 187500.0, -187500.02235174447, 187500.0, -12729.050246363908, 20469.705220425752, 7121.399893927562, 1380.6896067487726, -2944.44000058651, 0.004, -0.012, 0.972, 192.0, 0.0, 0.0, 0.0, 0.0, 0.0, 0.0, 0.0, 0.0, 0.0, 1.686054022084335E9, 0.0, 2023-06-06 14:20:22.084
50.0, 187500.0, -187500.02235174447, 187500.0, -12714.476908979048, 20479.942319386282, 7068.158038635021, 1297.384655163843, -2808.5860977871534, 0.004, -0.012, 0.972, 192.0, 0.0, 0.0, 0.0, 0.0, 0.0, 0.0, 0.0, 0.0, 0.0, 1.6860540220873E9, 0.0, 2023-06-06 14:20:22.087
51.0, 187500.0, -187500.02235174447, 187500.0, -12707.793737386912, 20528.26679089866, 7076.271721872297, 1290.9473527607147, -2702.9741052358277, 0.004, -0.012, 0.972, 192.0, 0.0, 0.0, 0.0, 0.0, 0.0, 0.0, 0.0, 0.0, 0.0, 1.68605402209229E9, 0.0, 2023-06-06 14:20:22.092
52.0, 187500.0, -187500.02235174447, 187500.0, -12739.130883113252, 20584.34731773702, 7146.635013417604, 1388.8256417305042, -2765.4695827328665, 0.004, -0.012, 0.972, 192.0, 0.0, 0.0, 0.0, 0.0, 0.0, 0.0, 0.0, 0.0, 0.0, 1.686054022096262E9, 0.0, 2023-06-06 14:20:22.096
53.0, 187500.0, -187500.02235174447, 187500.0, -12752.296060597428, 20613.3151785511, 7166.997452616389, 1425.6613165928504, -2812.475301322377, 0.004, -0.012, 0.972, 192.0, 0.0, 0.0, 0.0, 0.0, 0.0, 0.0, 0.0, 0.0, 0.0, 1.686054022100319E9, 0.0, 2023-06-06 14:20:22.100
54.0, 187500.0, -187500.02235174447, 187500.0, -12729.541984741925, 20600.17235281138, 7121.042266016277, 1375.9510369242475, -2867.3935374490666, 0.004, -0.012, 0.972, 192.0, 0.0, 0.0, 0.0, 0.0, 0.0, 0.0, 0.0, 0.0, 0.0, 1.686054022104295E9, 0.0, 2023-06-06 14:20:22.104
55.0, 187500.0, -187500.02235174447, 187500.0, -12688.682995877623, 20545.187061451325, 7075.467059071906, 1304.4031029228095, -2912.856985671161, 0.004, -0.012, 0.972, 192.0, 0.0, 0.0, 0.0, 0.0, 0.0, 0.0, 0.0, 0.0, 0.0, 1.686054022110212E9, 0.0, 2023-06-06 14:20:22.110
56.0, 187500.0, -187500.02235174447, 187500.0, -12684.32440570884, 20525.495174586198, 7092.54379183576, 1316.0036582951138, -2906.4643867569434, 0.004, -0.012, 0.972, 192.0, 0.0, 0.0, 0.0, 0.0, 0.0, 0.0, 0.0, 0.0, 0.0, 1.686054022112266E9, 0.0, 2023-06-06 14:20:22.112
57.0, 187500.0, -187500.02235174447, 187500.0, -12685.531399909425, 20517.53795356011, 7160.291929279796, 1403.287220393088, -3036.1715598310902, 0.004, -0.012, 0.972, 192.0, 0.0, 0.0, 0.0, 0.0, 0.0, 0.0, 0.0, 0.0, 0.0, 1.686054022115423E9, 0.0, 2023-06-06 14:20:22.115
58.0, 187500.0, -187500.02235174447, 187500.0, -12683.430335930627, 20470.66634543733, 7182.889542924112, 1438.6476801213837, -3121.3540579502655, 0.004, -0.012, 0.972, 192.0, 0.0, 32.0, 255.0, 160.0, 30.0, 96.0, 0.0, 0.0, 0.0, 1.686054022120399E9, 0.0, 2023-06-06 14:20:22.120
59.0, 187500.0, -187500.02235174447, 187500.0, -12705.156231541185, 20470.085200081492, 7138.655440647059, 1391.485499320686, -3039.4125627771095, 0.004, -0.012, 0.972, 192.0, 0.0, 0.0, 0.0, 0.0, 0.0, 0.0, 0.0, 0.0, 0.0, 1.686054022124409E9, 0.0, 2023-06-06 14:20:22.124
60.0, 187500.0, -187500.02235174447, 187500.0, -12696.41669945916, 20425.22524895969, 7091.381501124085, 1318.2164809961894, -3027.0073446044144, 0.004, -0.012, 0.972, 192.0, 0.0, 0.0, 0.0, 0.0, 0.0, 0.0, 0.0, 0.0, 0.0, 1.686054022128377E9, 0.0, 2023-06-06 14:20:22.128
61.0, 187500.0, -187500.02235174447, 187500.0, -12680.144629495697, 20412.864734275907, 7102.110338462632, 1323.3797339653652, -2991.110443009191, 0.004, -0.012, 0.972, 192.0, 0.0, 0.0, 0.0, 0.0, 0.0, 0.0, 0.0, 0.0, 0.0, 1.686054022132386E9, 0.0, 2023-06-06 14:20:22.132
62.0, 187500.0, -187500.02235174447, 187500.0, -12686.358414454273, 20478.377697274413, 7164.538760726305, 1405.1647669273339, -2930.090180646203, 0.004, -0.012, 0.972, 192.0, 0.0, 0.0, 0.0, 0.0, 0.0, 0.0, 0.0, 0.0, 0.0, 1.686054022136422E9, 0.0, 2023-06-06 14:20:22.136
63.0, 187500.0, -187500.02235174447, 187500.0, -12689.241789489006, 20507.949055188783, 7186.845801692701, 1435.1161044974453, -2904.8774129006165, 0.004, -0.012, 0.972, 192.0, 0.0, 0.0, 0.0, 0.0, 0.0, 0.0, 0.0, 0.0, 0.0, 1.686054022140406E9, 0.0, 2023-06-06 14:20:22.140
64.0, 187500.0, -187500.02235174447, 187500.0, -12716.287400279929, 20569.952794307806, 7150.010126830355, 1399.062740691035, -2754.606634927587, 0.004, -0.012, 0.972, 192.0, 0.0, 0.0, 0.0, 0.0, 0.0, 0.0, 0.0, 0.0, 0.0, 1.686054022143378E9, 0.0, 2023-06-06 14:20:22.143
65.0, 187500.0, -187500.02235174447, 187500.0, -12711.057092077386, 20589.599977684018, 7102.780890796291, 1318.9540885632146, -2700.7836342792075, 0.004, -0.012, 0.972, 192.0, 0.0, 0.0, 0.0, 0.0, 0.0, 0.0, 0.0, 0.0, 0.0, 1.686054022147435E9, 0.0, 2023-06-06 14:20:22.147
66.0, 187500.0, -187500.02235174447, 187500.0, -12685.263178975962, 20551.11027373198, 7110.69340833347, 1319.6246408968736, -2805.0768739076702, 0.004, -0.012, 0.972, 192.0, 0.0, 0.0, 0.0, 0.0, 0.0, 0.0, 0.0, 0.0, 0.0, 1.686054022152402E9, 0.0, 2023-06-06 14:20:22.152
67.0, 187500.0, -187500.02235174447, 187500.0, -12678.132972494719, 20608.17427732638, 7173.971196886444, 1411.5797175860068, -2803.713417495897, 0.004, -0.012, 0.972, 192.0, 0.0, 0.0, 0.0, 0.0, 0.0, 0.0, 0.0, 0.0, 0.0, 1.686054022156536E9, 0.0, 2023-06-06 14:20:22.156
68.0, 187500.0, -187500.02235174447, 187500.0, -12684.547923153392, 20631.353036326534, 7191.047929650299, 1435.8537120644703, -2824.70170553943, 0.002, -0.01, 0.976, 192.0, 0.0, 16.0, 255.0, 176.0, 30.0, 128.0, 0.0, 0.0, 0.0, 1.686054022160522E9, 0.0, 2023-06-06 14:20:22.160
69.0, 187500.0, -187500.02235174447, 187500.0, -12702.742243140012, 20597.154867309913, 7141.896443593078, 1378.8567637034373, -2880.1116800441364, 0.002, -0.01, 0.976, 192.0, 0.0, 0.0, 0.0, 0.0, 0.0, 0.0, 0.0, 0.0, 0.0, 1.686054022164514E9, 0.0, 2023-06-06 14:20:22.164
70.0, 187500.0, -187500.02235174447, 187500.0, -12703.301036751394, 20532.893602000906, 7086.039434199266, 1307.1747192352677, -2933.755866736873, 0.002, -0.01, 0.976, 192.0, 0.0, 0.0, 0.0, 0.0, 0.0, 0.0, 0.0, 0.0, 0.0, 1.686054022167516E9, 0.0, 2023-06-06 14:20:22.167
71.0, 187500.0, -187500.02235174447, 187500.0, -12674.802562570878, 20429.00269377264, 7088.5875330671715, 1302.7937773220274, -3101.081025729302, 0.002, -0.01, 0.976, 192.0, 0.0, 0.0, 0.0, 0.0, 0.0, 0.0, 0.0, 0.0, 0.0, 1.686054022171527E9, 0.0, 2023-06-06 14:20:22.171
72.0, 187500.0, -187500.02235174447, 187500.0, -12675.763687582457, 20414.80933604352, 7149.831312874712, 1397.676932534806, -3142.744677393994, 0.002, -0.01, 0.976, 192.0, 0.0, 0.0, 0.0, 0.0, 0.0, 0.0, 0.0, 0.0, 0.0, 1.68605402217555E9, 0.0, 2023-06-06 14:20:22.175
73.0, 187500.0, -187500.02235174447, 187500.0, -12689.55471391138, 20459.848101120962, 7170.730193940425, 1434.5573108860626, -3018.468978222487, 0.002, -0.01, 0.976, 192.0, 0.0, 0.0, 0.0, 0.0, 0.0, 0.0, 0.0, 0.0, 0.0, 1.686054022180534E9, 0.0, 2023-06-06 14:20:22.180
74.0, 187500.0, -187500.02235174447, 187500.0, -12712.286438022427, 20455.780083630096, 7127.613678886138, 1392.1784033988004, -2988.696454608018, 0.002, -0.01, 0.976, 192.0, 0.0, 0.0, 0.0, 0.0, 0.0, 0.0, 0.0, 0.0, 0.0, 1.686054022184515E9, 0.0, 2023-06-06 14:20:22.184
75.0, 187500.0, -187500.02235174447, 187500.0, -12711.593533944313, 20413.33412090947, 7073.634216026571, 1317.836501340449, -2995.603143644708, 0.002, -0.01, 0.976, 192.0, 0.0, 0.0, 0.0, 0.0, 0.0, 0.0, 0.0, 0.0, 0.0, 1.686054022188605E9, 0.0, 2023-06-06 14:20:22.188
76.0, 187500.0, -187500.02235174447, 187500.0, -12696.707272137079, 20402.135896937358, 7081.993768452856, 1318.2164809961894, -2968.7363468094286, 0.002, -0.01, 0.976, 192.0, 0.0, 0.0, 0.0, 0.0, 0.0, 0.0, 0.0, 0.0, 0.0, 1.68605402219154E9, 0.0, 2023-06-06 14:20:22.191
77.0, 187500.0, -187500.02235174447, 187500.0, -12682.200989985586, 20465.681906423797, 7148.087876807199, 1403.4883860931857, -2905.659723956552, 0.002, -0.01, 0.976, 192.0, 0.0, 0.0, 0.0, 0.0, 0.0, 0.0, 0.0, 0.0, 0.0, 1.686054022195639E9, 0.0, 2023-06-06 14:20:22.195
78.0, 187500.0, -187500.02235174447, 187500.0, -12689.107679022274, 20571.45036118631, 7172.808906174768, 1438.4241626768307, -2713.0547419851714, 0.004, -0.012, 0.972, 192.0, 0.0, 32.0, 255.0, 160.0, 30.0, 96.0, 0.0, 0.0, 0.0, 1.686054022199635E9, 0.0, 2023-06-06 14:20:22.199
79.0, 187500.0, -187500.02235174447, 187500.0, -12717.114414824775, 20633.07412064959, 7131.681696377003, 1389.9208772088143, -2645.485418496778, 0.004, -0.012, 0.972, 192.0, 0.0, 0.0, 0.0, 0.0, 0.0, 0.0, 0.0, 0.0, 0.0, 1.686054022203641E9, 0.0, 2023-06-06 14:20:22.203
80.0, 187500.0, -187500.02235174447, 187500.0, -12716.510917724481, 20557.189948223826, 7077.635178284071, 1311.063922770491, -2805.5462605412317, 0.004, -0.012, 0.972, 192.0, 0.0, 0.0, 0.0, 0.0, 0.0, 0.0, 0.0, 0.0, 0.0, 1.686054022207654E9, 0.0, 2023-06-06 14:20:22.207
81.0, 187500.0, -187500.02235174447, 187500.0, -12693.198048257596, 20513.849915724983, 7076.919922461501, 1305.7889110790386, -2866.7229851154075, 0.004, -0.012, 0.972, 192.0, 0.0, 0.0, 0.0, 0.0, 0.0, 0.0, 0.0, 0.0, 0.0, 1.686054022212669E9, 0.0, 2023-06-06 14:20:22.212
82.0, 187500.0, -187500.02235174447, 187500.0, -12679.339966695306, 20562.1520354929, 7146.724420395425, 1387.1716126408116, -2851.27792969679, 0.004, -0.012, 0.972, 192.0, 0.0, 0.0, 0.0, 0.0, 0.0, 0.0, 0.0, 0.0, 0.0, 1.686054022216639E9, 0.0, 2023-06-06 14:20:22.216
83.0, 187500.0, -187500.02235174447, 187500.0, -12685.75491735398, 20588.84001837254, 7167.735060183413, 1417.838206033493, -2855.882389054583, 0.004, -0.012, 0.972, 192.0, 0.0, 0.0, 0.0, 0.0, 0.0, 0.0, 0.0, 0.0, 0.0, 1.686054022219649E9, 0.0, 2023-06-06 14:20:22.219
84.0, 187500.0, -187500.02235174447, 187500.0, -12710.677112421647, 20572.970279809273, 7124.193861984475, 1377.6721212473062, -2902.0163896103372, 0.004, -0.012, 0.972, 192.0, 0.0, 0.0, 0.0, 0.0, 0.0, 0.0, 0.0, 0.0, 0.0, 1.68605402222369E9, 0.0, 2023-06-06 14:20:22.223
85.0, 187500.0, -187500.02235174447, 187500.0, -12704.597437929802, 20443.3748654574, 7071.600207281138, 1298.3010766865107, -3123.365714951243, 0.004, -0.012, 0.972, 192.0, 0.0, 0.0, 0.0, 0.0, 0.0, 0.0, 0.0, 0.0, 0.0, 1.686054022227664E9, 0.0, 2023-06-06 14:20:22.227
86.0, 187500.0, -187500.02235174447, 187500.0, -12682.804487085878, 20335.348884504903, 7070.214399124909, 1292.6684370837734, -3219.232346920055, 0.004, -0.012, 0.972, 192.0, 0.0, 0.0, 0.0, 0.0, 0.0, 0.0, 0.0, 0.0, 0.0, 1.686054022231766E9, 0.0, 2023-06-06 14:20:22.231
87.0, 187500.0, -187500.02235174447, 187500.0, -12665.88421653321, 20392.524646821577, 7128.932431809, 1365.1551443523342, -3056.533999029875, 0.004, -0.012, 0.972, 192.0, 0.0, 0.0, 0.0, 0.0, 0.0, 0.0, 0.0, 0.0, 0.0, 1.68605402223576E9, 0.0, 2023-06-06 14:20:22.235
88.0, 187500.0, -187500.02235174447, 187500.0, -12662.50910312046, 20410.18252494127, 7146.322088995229, 1384.7129207507278, -2986.528335395853, 0.002, -0.012, 0.97, 192.0, 0.0, 16.0, 255.0, 160.0, 30.0, 80.0, 0.0, 0.0, 0.0, 1.686054022239816E9, 0.0, 2023-06-06 14:20:22.239
89.0, 187500.0, -187500.02235174447, 187500.0, -12687.431298188127, 20403.298187649034, 7113.241507201375, 1360.84125767246, -2971.083279977236, 0.002, -0.012, 0.97, 192.0, 0.0, 0.0, 0.0, 0.0, 0.0, 0.0, 0.0, 0.0, 0.0, 1.686054022244778E9, 0.0, 2023-06-06 14:20:22.244
90.0, 187500.0, -187500.02235174447, 187500.0, -12725.451615506605, 20387.69667001923, 7076.763460250314, 1327.648917156329, -2973.20669570049, 0.002, -0.012, 0.97, 192.0, 0.0, 0.0, 0.0, 0.0, 0.0, 0.0, 0.0, 0.0, 0.0, 1.686054022247762E9, 0.0, 2023-06-06 14:20:22.247
91.0, 187500.0, -187500.02235174447, 187500.0, -12729.251412064006, 20387.450800830222, 7079.043338184755, 1328.610042167907, -2960.06386996077, 0.002, -0.012, 0.97, 192.0, 0.0, 0.0, 0.0, 0.0, 0.0, 0.0, 0.0, 0.0, 0.0, 1.686054022251766E9, 0.0, 2023-06-06 14:20:22.251
92.0, 187500.0, -187500.02235174447, 187500.0, -12721.18243231564, 20535.911087502373, 7148.601966929671, 1417.3688193999315, -2734.4006579399893, 0.002, -0.012, 0.97, 192.0, 0.0, 0.0, 0.0, 0.0, 0.0, 0.0, 0.0, 0.0, 0.0, 1.686054022255763E9, 0.0, 2023-06-06 14:20:22.255
93.0, 187500.0, -187500.02235174447, 187500.0, -12712.129975811242, 20648.72034176831, 7172.250112563385, 1442.738049356705, -2621.6361071629653, 0.002, -0.012, 0.97, 192.0, 0.0, 0.0, 0.0, 0.0, 0.0, 0.0, 0.0, 0.0, 0.0, 1.686054022259778E9, 0.0, 2023-06-06 14:20:22.259
94.0, 187500.0, -187500.02235174447, 187500.0, -12712.46525197807, 20620.020701887694, 7131.748751610369, 1393.9888946996803, -2765.7825071552406, 0.002, -0.012, 0.97, 192.0, 0.0, 0.0, 0.0, 0.0, 0.0, 0.0, 0.0, 0.0, 0.0, 1.686054022263783E9, 0.0, 2023-06-06 14:20:22.263
95.0, 187500.0, -187500.02235174447, 187500.0, -12704.262161762974, 20542.77307305015, 7074.282416615774, 1309.7675215920833, -2869.2040287499462, 0.002, -0.012, 0.97, 192.0, 0.0, 0.0, 0.0, 0.0, 0.0, 0.0, 0.0, 0.0, 0.0, 1.68605402226789E9, 0.0, 2023-06-06 14:20:22.267
96.0, 187500.0, -187500.02235174447, 187500.0, -12688.012443543965, 20504.663348753853, 7079.222152140397, 1301.8326523104492, -2899.088311086692, 0.002, -0.012, 0.97, 192.0, 0.0, 0.0, 0.0, 0.0, 0.0, 0.0, 0.0, 0.0, 0.0, 1.686054022272894E9, 0.0, 2023-06-06 14:20:22.272
97.0, 187500.0, -187500.02235174447, 187500.0, -12685.777269098435, 20573.46201818729, 7154.8604553771565, 1402.70607503725, -2858.408136178033, 0.002, -0.012, 0.97, 192.0, 0.0, 0.0, 0.0, 0.0, 0.0, 0.0, 0.0, 0.0, 0.0, 1.686054022275906E9, 0.0, 2023-06-06 14:20:22.275
98.0, 187500.0, -187500.02235174447, 187500.0, -12689.46530693356, 20595.925521364872, 7179.939112656011, 1431.4727701512302, -2863.99607229186, 0.004, -0.014, 0.972, 192.0, 0.0, 32.0, 255.0, 144.0, 30.0, 96.0, 0.0, 0.0, 0.0, 1.686054022279902E9, 0.0, 2023-06-06 14:20:22.279
99.0, 187500.0, -187500.02235174447, 187500.0, -12706.966722842066, 20505.982101676716, 7133.916870822534, 1383.6176852724177, -3074.057766682836, 0.004, -0.014, 0.972, 192.0, 0.0, 0.0, 0.0, 0.0, 0.0, 0.0, 0.0, 0.0, 0.0, 1.686054022283906E9, 0.0, 2023-06-06 14:20:22.283
100.0, 187500.0, -187500.02235174447, 187500.0, -12686.336062709817, 20371.80457971151, 7074.841210227158, 1314.0143530385917, -3215.074922451368, 0.004, -0.014, 0.972, 192.0, 0.0, 0.0, 0.0, 0.0, 0.0, 0.0, 0.0, 0.0, 0.0, 1.686054022287916E9, 0.0, 2023-06-06 14:20:22.287
101.0, 187500.0, -187500.02235174447, 187500.0, -12673.528513136926, 20364.85318718591, 7079.177448651487, 1314.4613879276978, -3085.457156355042, 0.004, -0.014, 0.972, 192.0, 0.0, 0.0, 0.0, 0.0, 0.0, 0.0, 0.0, 0.0, 0.0, 1.686054022291899E9, 0.0, 2023-06-06 14:20:22.291
102.0, 187500.0, -187500.02235174447, 187500.0, -12686.000786542987, 20450.058037049537, 7157.497961222883, 1422.353258413465, -2961.181457183535, 0.004, -0.014, 0.972, 192.0, 0.0, 0.0, 0.0, 0.0, 0.0, 0.0, 0.0, 0.0, 0.0, 1.686054022295877E9, 0.0, 2023-06-06 14:20:22.295
103.0, 187500.0, -187500.02235174447, 187500.0, -12689.174734255641, 20490.760563702654, 7180.252037078386, 1459.9041890983808, -2917.3049828177673, 0.004, -0.014, 0.972, 192.0, 0.0, 0.0, 0.0, 0.0, 0.0, 0.0, 0.0, 0.0, 0.0, 1.68605402230089E9, 0.0, 2023-06-06 14:20:22.300
104.0, 187500.0, -187500.02235174447, 187500.0, -12707.860792620277, 20479.450581008266, 7137.224929001919, 1412.7196565532277, -2932.8841487031164, 0.004, -0.014, 0.972, 192.0, 0.0, 0.0, 0.0, 0.0, 0.0, 0.0, 0.0, 0.0, 0.0, 1.686054022303951E9, 0.0, 2023-06-06 14:20:22.303
105.0, 187500.0, -187500.02235174447, 187500.0, -12686.98426329902, 20416.150440710837, 7077.054032928233, 1325.391390966343, -2964.4895153629204, 0.004, -0.014, 0.972, 192.0, 0.0, 0.0, 0.0, 0.0, 0.0, 0.0, 0.0, 0.0, 0.0, 1.686054022307018E9, 0.0, 2023-06-06 14:20:22.307
106.0, 187500.0, -187500.02235174447, 187500.0, -12676.255425960473, 20463.737304656184, 7082.6643207865145, 1313.1873384937453, -2789.900039422517, 0.004, -0.014, 0.972, 192.0, 0.0, 0.0, 0.0, 0.0, 0.0, 0.0, 0.0, 0.0, 0.0, 1.686054022312035E9, 0.0, 2023-06-06 14:20:22.312
107.0, 187500.0, -187500.02235174447, 187500.0, -12668.052335745375, 20616.332664052567, 7165.186961315509, 1400.8061767585489, -2635.9859271032724, 0.004, -0.014, 0.972, 192.0, 0.0, 0.0, 0.0, 0.0, 0.0, 0.0, 0.0, 0.0, 0.0, 1.686054022316027E9, 0.0, 2023-06-06 14:20:22.316
108.0, 187500.0, -187500.02235174447, 187500.0, -12666.599472355781, 20628.13438512497, 7176.005205631877, 1430.9363282843028, -2736.2335009853246, 0.004, -0.014, 0.972, 192.0, 0.0, 0.0, 0.0, 0.0, 0.0, 0.0, 0.0, 0.0, 0.0, 1.686054022320028E9, 0.0, 2023-06-06 14:20:22.320
109.0, 187500.0, -187500.02235174447, 187500.0, -12688.884161577722, 20584.12380029247, 7129.759446353847, 1395.5982203004623, -2818.443217091944, 0.004, -0.014, 0.972, 192.0, 0.0, 0.0, 255.0, 128.0, 30.0, 144.0, 0.0, 0.0, 0.0, 1.686054022324044E9, 0.0, 2023-06-06 14:20:22.324
110.0, 187500.0, -187500.02235174447, 187500.0, -12677.663585861157, 20505.44565980979, 7081.680844030481, 1316.4283414397648, -2888.694749914974, 0.004, -0.014, 0.972, 192.0, 0.0, 0.0, 0.0, 0.0, 0.0, 0.0, 0.0, 0.0, 0.0, 1.686054022328033E9, 0.0, 2023-06-06 14:20:22.328
111.0, 187500.0, -187500.02235174447, 187500.0, -12658.93282400761, 20476.6342612069, 7082.060823686222, 1306.459463412698, -2904.631543711608, 0.004, -0.014, 0.972, 192.0, 0.0, 0.0, 0.0, 0.0, 0.0, 0.0, 0.0, 0.0, 0.0, 1.68605402233103E9, 0.0, 2023-06-06 14:20:22.331
112.0, 187500.0, -187500.02235174447, 187500.0, -12660.810370541856, 20525.696340286297, 7143.304603493763, 1400.0238657026132, -2867.3711857046114, 0.004, -0.014, 0.972, 192.0, 0.0, 0.0, 0.0, 0.0, 0.0, 0.0, 0.0, 0.0, 0.0, 1.686054022335198E9, 0.0, 2023-06-06 14:20:22.335
113.0, 187500.0, -187500.02235174447, 187500.0, -12653.747219293979, 20470.219310548226, 7159.688432179503, 1427.4047526603642, -3028.0578765938135, 0.004, -0.014, 0.972, 192.0, 0.0, 0.0, 0.0, 0.0, 0.0, 0.0, 0.0, 0.0, 0.0, 1.686054022340149E9, 0.0, 2023-06-06 14:20:22.340
114.0, 187500.0, -187500.02235174447, 187500.0, -12664.02902174342, 20373.74918147912, 7117.93537353699, 1377.6944729917614, -3166.7057474500834, 0.004, -0.014, 0.972, 192.0, 0.0, 0.0, 0.0, 0.0, 0.0, 0.0, 0.0, 0.0, 0.0, 1.686054022344167E9, 0.0, 2023-06-06 14:20:22.344
115.0, 187500.0, -187500.02235174447, 187500.0, -12672.634443358713, 20336.578230449944, 7063.0171374103, 1302.2349837106449, -3098.3094094168437, 0.004, -0.014, 0.972, 192.0, 0.0, 0.0, 0.0, 0.0, 0.0, 0.0, 0.0, 0.0, 0.0, 1.68605402234821E9, 0.0, 2023-06-06 14:20:22.348
116.0, 187500.0, -187500.02235174447, 187500.0, -12671.002766013477, 20336.533526961033, 7062.391288565552, 1310.326315203466, -3025.554481214819, 0.004, -0.014, 0.972, 192.0, 0.0, 0.0, 0.0, 0.0, 0.0, 0.0, 0.0, 0.0, 0.0, 1.686054022352867E9, 0.0, 2023-06-06 14:20:22.352
117.0, 187500.0, -187500.02235174447, 187500.0, -12661.771495553434, 20403.007614971117, 7136.800245857268, 1403.1978134152669, -2942.405991841077, 0.004, -0.014, 0.972, 192.0, 0.0, 0.0, 0.0, 0.0, 0.0, 0.0, 0.0, 0.0, 0.0, 1.686054022355179E9, 0.0, 2023-06-06 14:20:22.355
118.0, 187500.0, -187500.02235174447, 187500.0, -12651.623803570725, 20451.041513805572, 7175.267598064852, 1446.2249214917329, -2906.5314419903093, 0.004, -0.014, 0.972, 192.0, 0.0, 0.0, 0.0, 0.0, 0.0, 0.0, 0.0, 0.0, 0.0, 1.686054022359161E9, 0.0, 2023-06-06 14:20:22.359
119.0, 187500.0, -187500.02235174447, 187500.0, -12690.225266245041, 20449.543946927064, 7135.973231312422, 1412.4961391086745, -2924.3681340656444, 0.004, -0.014, 0.972, 192.0, 0.0, 0.0, 255.0, 128.0, 30.0, 96.0, 0.0, 0.0, 0.0, 1.686054022364829E9, 0.0, 2023-06-06 14:20:22.364
120.0, 187500.0, -187500.02235174447, 187500.0, -12708.553696698393, 20448.404007959845, 7071.756669492325, 1326.777199122572, -2807.5579175422095, 0.004, -0.014, 0.972, 192.0, 0.0, 0.0, 0.0, 0.0, 0.0, 0.0, 0.0, 0.0, 0.0, 1.686054022367132E9, 0.0, 2023-06-06 14:20:22.367
121.0, 187500.0, -187500.02235174447, 187500.0, -12694.22622850254, 20505.557418532066, 7077.478716072884, 1313.9249460607705, -2704.672837814431, 0.004, -0.014, 0.972, 192.0, 0.0, 0.0, 0.0, 0.0, 0.0, 0.0, 0.0, 0.0, 0.0, 1.686054022372174E9, 0.0, 2023-06-06 14:20:22.372
122.0, 187500.0, -187500.02235174447, 187500.0, -12687.900684821689, 20590.78462014015, 7160.783667657813, 1422.6661828358392, -2752.5055709487883, 0.004, -0.014, 0.972, 192.0, 0.0, 0.0, 0.0, 0.0, 0.0, 0.0, 0.0, 0.0, 0.0, 1.686054022377149E9, 0.0, 2023-06-06 14:20:22.377
123.0, 187500.0, -187500.02235174447, 187500.0, -12699.836516360821, 20628.827289203084, 7185.817621447757, 1465.4027182343864, -2797.5890395151428, 0.004, -0.014, 0.972, 192.0, 0.0, 0.0, 0.0, 0.0, 0.0, 0.0, 0.0, 0.0, 0.0, 1.686054022380171E9, 0.0, 2023-06-06 14:20:22.380
124.0, 187500.0, -187500.02235174447, 187500.0, -12716.332103768838, 20612.197591328335, 7151.172417542031, 1423.8508252919705, -2860.8444763236616, 0.004, -0.014, 0.972, 192.0, 0.0, 0.0, 0.0, 0.0, 0.0, 0.0, 0.0, 0.0, 0.0, 1.68605402238314E9, 0.0, 2023-06-06 14:20:22.383
125.0, 187500.0, -187500.02235174447, 187500.0, -12698.27189424895, 20545.142357962413, 7090.152155179043, 1328.2077107677117, -2927.5867852672086, 0.004, -0.014, 0.972, 192.0, 0.0, 0.0, 0.0, 0.0, 0.0, 0.0, 0.0, 0.0, 0.0, 1.68605402238829E9, 0.0, 2023-06-06 14:20:22.388
126.0, 187500.0, -187500.02235174447, 187500.0, -12683.542094652903, 20517.11327041546, 7087.425242355495, 1323.2009200097227, -2932.0347824138144, 0.004, -0.014, 0.972, 192.0, 0.0, 0.0, 0.0, 0.0, 0.0, 0.0, 0.0, 0.0, 0.0, 1.686054022393259E9, 0.0, 2023-06-06 14:20:22.393
127.0, 187500.0, -187500.02235174447, 187500.0, -12692.952179068587, 20516.755642504173, 7163.287063036807, 1435.384325430909, -3040.083115110769, 0.004, -0.014, 0.972, 192.0, 0.0, 0.0, 0.0, 0.0, 0.0, 0.0, 0.0, 0.0, 0.0, 1.686054022395295E9, 0.0, 2023-06-06 14:20:22.395
128.0, 187500.0, -187500.02235174447, 187500.0, -12700.171792527652, 20465.212519790235, 7179.13444985562, 1471.0800613260344, -3139.9283575926256, 0.004, -0.014, 0.972, 192.0, 0.0, 0.0, 0.0, 0.0, 0.0, 0.0, 0.0, 0.0, 0.0, 1.686054022399281E9, 0.0, 2023-06-06 14:20:22.399
129.0, 187500.0, -187500.02235174447, 187500.0, -12709.917153110166, 20469.414647747835, 7132.9333940665, 1425.348392170476, -3057.8080484638276, -0.002, -0.012, 0.97, 192.0, 255.0, 240.0, 255.0, 160.0, 30.0, 80.0, 0.0, 0.0, 0.0, 1.686054022403763E9, 0.0, 2023-06-06 14:20:22.403
130.0, 187500.0, -187500.02235174447, 187500.0, -12705.647969919202, 20403.387594626856, 7066.4593060564175, 1325.1678735217897, -3053.2706443394, -0.002, -0.012, 0.97, 192.0, 0.0, 0.0, 0.0, 0.0, 0.0, 0.0, 0.0, 0.0, 0.0, 1.68605402240727E9, 0.0, 2023-06-06 14:20:22.407
131.0, 187500.0, -187500.02235174447, 187500.0, -12681.373975440738, 20366.328402319956, 7063.553579277227, 1310.393370436832, -3016.9714113439813, -0.002, -0.012, 0.97, 192.0, 0.0, 0.0, 0.0, 0.0, 0.0, 0.0, 0.0, 0.0, 0.0, 1.686054022411272E9, 0.0, 2023-06-06 14:20:22.411
132.0, 187500.0, -187500.02235174447, 187500.0, -12681.485734163016, 20451.913231839328, 7150.434809975006, 1428.3658776719426, -2924.658706743563, -0.002, -0.012, 0.97, 192.0, 0.0, 0.0, 0.0, 0.0, 0.0, 0.0, 0.0, 0.0, 0.0, 1.686054022416262E9, 0.0, 2023-06-06 14:20:22.416
133.0, 187500.0, -187500.02235174447, 187500.0, -12691.633426145725, 20498.695432984285, 7175.982853887422, 1471.4600409817745, -2896.249639540868, -0.002, -0.012, 0.97, 192.0, 0.0, 0.0, 0.0, 0.0, 0.0, 0.0, 0.0, 0.0, 0.0, 1.686054022420267E9, 0.0, 2023-06-06 14:20:22.420
134.0, 187500.0, -187500.02235174447, 187500.0, -12709.738339154523, 20548.606878352988, 7137.493149935383, 1435.2278632197217, -2778.4335945169446, -0.002, -0.012, 0.97, 192.0, 0.0, 0.0, 0.0, 0.0, 0.0, 0.0, 0.0, 0.0, 0.0, 1.686054022423261E9, 0.0, 2023-06-06 14:20:22.423
135.0, 187500.0, -187500.02235174447, 187500.0, -12706.676150164147, 20576.255986244203, 7077.232846883875, 1340.9482051072366, -2678.0519101681602, -0.002, -0.012, 0.97, 192.0, 0.0, 0.0, 0.0, 0.0, 0.0, 0.0, 0.0, 0.0, 0.0, 1.686054022427432E9, 0.0, 2023-06-06 14:20:22.427
136.0, 187500.0, -187500.02235174447, 187500.0, -12687.408946443671, 20529.138508932414, 7069.007404924322, 1317.4788734291642, -2791.2411440898354, -0.002, -0.012, 0.97, 192.0, 0.0, 0.0, 0.0, 0.0, 0.0, 0.0, 0.0, 0.0, 0.0, 1.686054022431413E9, 0.0, 2023-06-06 14:20:22.431
137.0, 187500.0, -187500.02235174447, 187500.0, -12682.513914407959, 20600.150001066926, 7151.954728597967, 1426.510682882152, -2789.318894066679, -0.002, -0.012, 0.97, 192.0, 0.0, 0.0, 0.0, 0.0, 0.0, 0.0, 0.0, 0.0, 0.0, 1.686054022435429E9, 0.0, 2023-06-06 14:20:22.435
138.0, 187500.0, -187500.02235174447, 187500.0, -12686.55958015437, 20637.3209520961, 7184.99060690291, 1466.5203054571516, -2805.725074496874, -0.002, -0.012, 0.97, 192.0, 0.0, 0.0, 0.0, 0.0, 0.0, 0.0, 0.0, 0.0, 0.0, 1.68605402244062E9, 0.0, 2023-06-06 14:20:22.440
139.0, 187500.0, -187500.02235174447, 187500.0, -12702.719891395556, 20638.84087071906, 7152.871150120634, 1434.154979485867, -2852.1272959860917, -0.002, -0.012, 0.97, 192.0, 0.0, 0.0, 255.0, 144.0, 30.0, 64.0, 0.0, 0.0, 0.0, 1.686054022443409E9, 0.0, 2023-06-06 14:20:22.443
140.0, 187500.0, -187500.02235174447, 187500.0, -12680.725774851535, 20560.386247680934, 7091.73912903537, 1340.612928940407, -2923.474064287432, -0.002, -0.012, 0.97, 192.0, 0.0, 0.0, 0.0, 0.0, 0.0, 0.0, 0.0, 0.0, 0.0, 1.686054022448408E9, 0.0, 2023-06-06 14:20:22.448
141.0, 187500.0, -187500.02235174447, 187500.0, -12660.944481008588, 20463.200862789257, 7086.262951643819, 1331.515768947097, -3064.0665369113135, -0.002, -0.012, 0.97, 192.0, 0.0, 0.0, 0.0, 0.0, 0.0, 0.0, 0.0, 0.0, 0.0, 1.686054022451417E9, 0.0, 2023-06-06 14:20:22.451
142.0, 187500.0, -187500.02235174447, 187500.0, -12671.449800902583, 20451.041513805572, 7161.901254880579, 1447.3425087144983, -3147.997337340991, -0.002, -0.012, 0.97, 192.0, 0.0, 0.0, 0.0, 0.0, 0.0, 0.0, 0.0, 0.0, 0.0, 1.686054022455385E9, 0.0, 2023-06-06 14:20:22.455
143.0, 187500.0, -187500.02235174447, 187500.0, -12676.098963749286, 20502.67404349733, 7189.528011027338, 1488.7602911901822, -3018.111350311202, -0.002, -0.012, 0.97, 192.0, 0.0, 0.0, 0.0, 0.0, 0.0, 0.0, 0.0, 0.0, 0.0, 1.686054022459427E9, 0.0, 2023-06-06 14:20:22.459
144.0, 187500.0, -187500.02235174447, 187500.0, -12682.044527774398, 20506.85381971047, 7151.865321620146, 1446.7837151031156, -2986.170707484568, -0.002, -0.012, 0.97, 192.0, 0.0, 0.0, 0.0, 0.0, 0.0, 0.0, 0.0, 0.0, 0.0, 1.686054022463423E9, 0.0, 2023-06-06 14:20:22.463
145.0, 187500.0, -187500.02235174447, 187500.0, -12671.919187536143, 20433.4730426637, 7086.5982278106485, 1349.128943577879, -3005.057931549303, -0.002, -0.012, 0.97, 192.0, 0.0, 0.0, 0.0, 0.0, 0.0, 0.0, 0.0, 0.0, 0.0, 1.686054022467533E9, 0.0, 2023-06-06 14:20:22.467
146.0, 187500.0, -187500.02235174447, 187500.0, -12672.656795103168, 20407.634426073364, 7086.486469088372, 1342.8257516414824, -2976.1571259685907, -0.002, -0.012, 0.97, 192.0, 0.0, 0.0, 0.0, 0.0, 0.0, 0.0, 0.0, 0.0, 0.0, 1.686054022471509E9, 0.0, 2023-06-06 14:20:22.471
147.0, 187500.0, -187500.02235174447, 187500.0, -12693.712138380068, 20511.927665701827, 7172.361871285662, 1466.9673403462577, -2892.025159838815, -0.002, -0.012, 0.97, 192.0, 0.0, 0.0, 0.0, 0.0, 0.0, 0.0, 0.0, 0.0, 0.0, 1.686054022476545E9, 0.0, 2023-06-06 14:20:22.476
148.0, 187500.0, -187500.02235174447, 187500.0, -12700.887048350221, 20599.635910944453, 7194.735967485424, 1492.9624191477799, -2747.6328906575313, -0.002, -0.012, 0.97, 192.0, 0.0, 0.0, 0.0, 0.0, 0.0, 0.0, 0.0, 0.0, 0.0, 1.686054022479538E9, 0.0, 2023-06-06 14:20:22.479
149.0, 187500.0, -187500.02235174447, 187500.0, -12697.400176215193, 20687.52297014272, 7164.158781070564, 1450.2035320047776, -2626.352325243035, 0.002, -0.01, 0.974, 192.0, 0.0, 16.0, 255.0, 176.0, 30.0, 112.0, 0.0, 0.0, 0.0, 1.686054022483553E9, 0.0, 2023-06-06 14:20:22.483
150.0, 187500.0, -187500.02235174447, 187500.0, -12677.283606205418, 20593.131553307958, 7099.673998317004, 1352.5711122239964, -2793.9457051689274, 0.002, -0.01, 0.974, 192.0, 0.0, 0.0, 0.0, 0.0, 0.0, 0.0, 0.0, 0.0, 0.0, 1.686054022487503E9, 0.0, 2023-06-06 14:20:22.487
151.0, 187500.0, -187500.02235174447, 187500.0, -12672.7909055699, 20526.053968197582, 7087.492297588861, 1325.7490188776278, -2869.3604909611336, 0.002, -0.01, 0.974, 192.0, 0.0, 0.0, 0.0, 0.0, 0.0, 0.0, 0.0, 0.0, 0.0, 1.68605402249156E9, 0.0, 2023-06-06 14:20:22.491
152.0, 187500.0, -187500.02235174447, 187500.0, -12669.907530535165, 20586.78365788265, 7161.6106822026595, 1429.8410928059927, -2837.5316068567763, 0.002, -0.01, 0.974, 192.0, 0.0, 0.0, 0.0, 0.0, 0.0, 0.0, 0.0, 0.0, 0.0, 1.686054022495544E9, 0.0, 2023-06-06 14:20:22.495
153.0, 187500.0, -187500.02235174447, 187500.0, -12671.472152647037, 20621.853544933027, 7184.655330736081, 1468.4649072247635, -2837.08457196767, 0.002, -0.01, 0.974, 192.0, 0.0, 0.0, 0.0, 0.0, 0.0, 0.0, 0.0, 0.0, 0.0, 1.6860540224996E9, 0.0, 2023-06-06 14:20:22.499
154.0, 187500.0, -187500.02235174447, 187500.0, -12687.498353421493, 20594.539713208644, 7146.478551206416, 1416.5194531106297, -2883.196220778969, 0.002, -0.01, 0.974, 192.0, 0.0, 0.0, 0.0, 0.0, 0.0, 0.0, 0.0, 0.0, 0.0, 1.68605402250263E9, 0.0, 2023-06-06 14:20:22.502
155.0, 187500.0, -187500.02235174447, 187500.0, -12682.759783596968, 20456.85296736395, 7079.110393418121, 1316.0260100395692, -3079.310426629833, 0.002, -0.01, 0.974, 192.0, 0.0, 0.0, 0.0, 0.0, 0.0, 0.0, 0.0, 0.0, 0.0, 1.68605402250668E9, 0.0, 2023-06-06 14:20:22.506
156.0, 187500.0, -187500.02235174447, 187500.0, -12659.759838552456, 20324.508288444078, 7066.213436867409, 1300.3350854319438, -3227.6589545797056, 0.002, -0.01, 0.974, 192.0, 0.0, 0.0, 0.0, 0.0, 0.0, 0.0, 0.0, 0.0, 0.0, 1.686054022510652E9, 0.0, 2023-06-06 14:20:22.510
157.0, 187500.0, -187500.02235174447, 187500.0, -12653.45664661606, 20421.4701558912, 7156.715650166947, 1427.1365317269006, -3039.434914521565, 0.002, -0.01, 0.974, 192.0, 0.0, 0.0, 0.0, 0.0, 0.0, 0.0, 0.0, 0.0, 0.0, 1.686054022515645E9, 0.0, 2023-06-06 14:20:22.515
158.0, 187500.0, -187500.02235174447, 187500.0, -12668.834646801311, 20477.953014129762, 7190.645598250103, 1482.77002367616, -2954.565340824764, 0.002, -0.01, 0.974, 192.0, 0.0, 0.0, 0.0, 0.0, 0.0, 0.0, 0.0, 0.0, 0.0, 1.686054022519661E9, 0.0, 2023-06-06 14:20:22.519
159.0, 187500.0, -187500.02235174447, 187500.0, -12702.18344952863, 20492.548703259075, 7160.403688002073, 1455.2103227627663, -2949.5138465778646, 0.002, -0.01, 0.974, 192.0, 0.0, 0.0, 255.0, 208.0, 30.0, 96.0, 0.0, 0.0, 0.0, 1.686054022523655E9, 0.0, 2023-06-06 14:20:22.523
160.0, 187500.0, -187500.02235174447, 187500.0, -12687.453649932582, 20430.276743206592, 7095.829498270691, 1357.0861646039682, -2987.2882947073335, 0.002, -0.01, 0.974, 192.0, 0.0, 0.0, 0.0, 0.0, 0.0, 0.0, 0.0, 0.0, 0.0, 1.686054022527638E9, 0.0, 2023-06-06 14:20:22.527
161.0, 187500.0, -187500.02235174447, 187500.0, -12665.459533388559, 20402.873504504383, 7087.78287026678, 1338.0201265835915, -2972.7149573224733, 0.002, -0.01, 0.974, 192.0, 0.0, 0.0, 0.0, 0.0, 0.0, 0.0, 0.0, 0.0, 0.0, 1.686054022530732E9, 0.0, 2023-06-06 14:20:22.530
162.0, 187500.0, -187500.02235174447, 187500.0, -12678.714117850557, 20542.236631183223, 7165.097554337687, 1443.609767390462, -2768.062385089682, 0.002, -0.01, 0.974, 192.0, 0.0, 0.0, 0.0, 0.0, 0.0, 0.0, 0.0, 0.0, 0.0, 1.686054022534634E9, 0.0, 2023-06-06 14:20:22.534
163.0, 187500.0, -187500.02235174447, 187500.0, -12674.802562570878, 20674.1789787029, 7197.127604142142, 1477.0703288400566, -2607.487452922756, 0.002, -0.01, 0.974, 192.0, 0.0, 0.0, 0.0, 0.0, 0.0, 0.0, 0.0, 0.0, 0.0, 1.686054022538642E9, 0.0, 2023-06-06 14:20:22.538
164.0, 187500.0, -187500.02235174447, 187500.0, -12691.409908701171, 20661.259670407733, 7166.148086327087, 1449.935311071314, -2743.2966522332017, 0.002, -0.01, 0.974, 192.0, 0.0, 0.0, 0.0, 0.0, 0.0, 0.0, 0.0, 0.0, 0.0, 1.686054022543642E9, 0.0, 2023-06-06 14:20:22.543
165.0, 187500.0, -187500.02235174447, 187500.0, -12689.398251700193, 20573.08203853155, 7096.857678515635, 1352.414650012809, -2864.6219211366083, 0.002, -0.01, 0.974, 192.0, 0.0, 0.0, 0.0, 0.0, 0.0, 0.0, 0.0, 0.0, 0.0, 1.686054022547754E9, 0.0, 2023-06-06 14:20:22.547
166.0, 187500.0, -187500.02235174447, 187500.0, -12672.477981147525, 20510.094822656494, 7079.691538773959, 1316.7859693510497, -2906.1961658234795, 0.002, -0.01, 0.974, 192.0, 0.0, 0.0, 0.0, 0.0, 0.0, 0.0, 0.0, 0.0, 0.0, 1.686054022551779E9, 0.0, 2023-06-06 14:20:22.551
167.0, 187500.0, -187500.02235174447, 187500.0, -12674.847266059789, 20582.5591781806, 7157.587368200704, 1427.4718078937303, -2856.3517756881447, 0.002, -0.01, 0.974, 192.0, 0.0, 0.0, 0.0, 0.0, 0.0, 0.0, 0.0, 0.0, 0.0, 1.686054022555791E9, 0.0, 2023-06-06 14:20:22.555
168.0, 187500.0, -187500.02235174447, 187500.0, -12677.261254460962, 20627.106204880027, 7192.456089550983, 1475.639817194917, -2847.031098250282, 0.002, -0.01, 0.974, 192.0, 0.0, 0.0, 0.0, 0.0, 0.0, 0.0, 0.0, 0.0, 0.0, 1.68605402255876E9, 0.0, 2023-06-06 14:20:22.558
169.0, 187500.0, -187500.02235174447, 187500.0, -12699.814164616368, 20572.702058875806, 7161.051888591277, 1446.671956380839, -3013.5739461867747, 0.002, -0.01, 0.974, 192.0, 0.0, 0.0, 255.0, 192.0, 30.0, 96.0, 0.0, 0.0, 0.0, 1.686054022562754E9, 0.0, 2023-06-06 14:20:22.562
170.0, 187500.0, -187500.02235174447, 187500.0, -12691.745184868001, 20402.247655659638, 7089.727472034392, 1351.6993941902392, -3224.2167859335887, 0.002, -0.01, 0.974, 192.0, 0.0, 0.0, 0.0, 0.0, 0.0, 0.0, 0.0, 0.0, 0.0, 1.686054022566773E9, 0.0, 2023-06-06 14:20:22.566
171.0, 187500.0, -187500.02235174447, 187500.0, -12679.116449250752, 20360.718114461677, 7074.528285804783, 1322.9774025651698, -3121.0858370168016, 0.002, -0.01, 0.974, 192.0, 0.0, 0.0, 0.0, 0.0, 0.0, 0.0, 0.0, 0.0, 0.0, 1.686054022570788E9, 0.0, 2023-06-06 14:20:22.570
172.0, 187500.0, -187500.02235174447, 187500.0, -12681.46338241856, 20451.28738299458, 7149.876016363623, 1426.6894968377944, -2991.8256988317607, 0.002, -0.01, 0.974, 192.0, 0.0, 0.0, 0.0, 0.0, 0.0, 0.0, 0.0, 0.0, 0.0, 1.686054022575769E9, 0.0, 2023-06-06 14:20:22.575
173.0, 187500.0, -187500.02235174447, 187500.0, -12680.815181829355, 20491.47581952522, 7173.948845141989, 1462.608750177473, -2946.8986924765936, 0.002, -0.01, 0.974, 192.0, 0.0, 0.0, 0.0, 0.0, 0.0, 0.0, 0.0, 0.0, 0.0, 1.68605402257976E9, 0.0, 2023-06-06 14:20:22.579
174.0, 187500.0, -187500.02235174447, 187500.0, -12703.725719896045, 20495.409726549355, 7149.473684963427, 1440.8157993335485, -2947.4574860879766, 0.002, -0.01, 0.974, 192.0, 0.0, 0.0, 0.0, 0.0, 0.0, 0.0, 0.0, 0.0, 0.0, 1.686054022583892E9, 0.0, 2023-06-06 14:20:22.583
175.0, 187500.0, -187500.02235174447, 187500.0, -12681.55278939638, 20428.13097573888, 7087.984035966878, 1339.6294521843736, -2986.461280162487, 0.002, -0.01, 0.974, 192.0, 0.0, 0.0, 0.0, 0.0, 0.0, 0.0, 0.0, 0.0, 0.0, 1.686054022586899E9, 0.0, 2023-06-06 14:20:22.586
176.0, 187500.0, -187500.02235174447, 187500.0, -12658.709306563058, 20442.257278234636, 7079.110393418121, 1310.3039634590107, -2844.058316237726, 0.002, -0.01, 0.974, 192.0, 0.0, 0.0, 0.0, 0.0, 0.0, 0.0, 0.0, 0.0, 0.0, 1.686054022590907E9, 0.0, 2023-06-06 14:20:22.590
177.0, 187500.0, -187500.02235174447, 187500.0, -12667.448838645083, 20613.13636459546, 7164.806981659768, 1417.838206033493, -2625.99469733175, 0.002, -0.01, 0.974, 192.0, 0.0, 0.0, 0.0, 0.0, 0.0, 0.0, 0.0, 0.0, 0.0, 1.686054022595092E9, 0.0, 2023-06-06 14:20:22.595
178.0, 187500.0, -187500.02235174447, 187500.0, -12676.143667238197, 20635.599867773042, 7186.465822036961, 1451.4328779498194, -2729.3044602041796, 0.002, -0.01, 0.974, 192.0, 0.0, 0.0, 0.0, 0.0, 0.0, 0.0, 0.0, 0.0, 0.0, 1.68605402259894E9, 0.0, 2023-06-06 14:20:22.598
179.0, 187500.0, -187500.02235174447, 187500.0, -12700.440013461115, 20628.670826991896, 7157.743830411891, 1431.1374939844006, -2815.448083334933, 0.004, -0.012, 0.978, 192.0, 0.0, 32.0, 255.0, 160.0, 30.0, 144.0, 0.0, 0.0, 0.0, 1.686054022602915E9, 0.0, 2023-06-06 14:20:22.602
180.0, 187500.0, -187500.02235174447, 187500.0, -12693.645083146703, 20561.839111070527, 7098.958742494434, 1348.2348737996667, -2899.0659593422365, 0.004, -0.012, 0.978, 192.0, 0.0, 0.0, 0.0, 0.0, 0.0, 0.0, 0.0, 0.0, 0.0, 1.686054022607938E9, 0.0, 2023-06-06 14:20:22.607
181.0, 187500.0, -187500.02235174447, 187500.0, -12674.757859081968, 20512.888790713405, 7082.351396364141, 1323.0221060540803, -2922.24471834239, 0.004, -0.012, 0.978, 192.0, 0.0, 0.0, 0.0, 0.0, 0.0, 0.0, 0.0, 0.0, 0.0, 1.686054022611941E9, 0.0, 2023-06-06 14:20:22.611
182.0, 187500.0, -187500.02235174447, 187500.0, -12673.75203058148, 20587.65537591641, 7158.280272278818, 1431.2716044511324, -2865.4489356814547, 0.004, -0.012, 0.978, 192.0, 0.0, 0.0, 0.0, 0.0, 0.0, 0.0, 0.0, 0.0, 0.0, 1.686054022614939E9, 0.0, 2023-06-06 14:20:22.614
183.0, 187500.0, -187500.02235174447, 187500.0, -12685.643158631703, 20559.715695347273, 7176.161667843065, 1460.6194449209506, -2998.3077047238, 0.004, -0.012, 0.978, 192.0, 0.0, 0.0, 0.0, 0.0, 0.0, 0.0, 0.0, 0.0, 0.0, 1.686054022618918E9, 0.0, 2023-06-06 14:20:22.618
184.0, 187500.0, -187500.02235174447, 187500.0, -12701.08821405032, 20454.95306908525, 7141.851740104168, 1427.6953253382833, -3176.7416807105164, 0.004, -0.012, 0.978, 192.0, 0.0, 0.0, 0.0, 0.0, 0.0, 0.0, 0.0, 0.0, 0.0, 1.686054022622892E9, 0.0, 2023-06-06 14:20:22.622
185.0, 187500.0, -187500.02235174447, 187500.0, -12685.017309786954, 20396.167981167793, 7083.513687075817, 1337.908367861315, -3109.3958746666763, 0.004, -0.012, 0.978, 192.0, 0.0, 0.0, 0.0, 0.0, 0.0, 0.0, 0.0, 0.0, 0.0, 1.686054022627042E9, 0.0, 2023-06-06 14:20:22.627
186.0, 187500.0, -187500.02235174447, 187500.0, -12670.332213679816, 20366.194291853226, 7072.248407870342, 1313.0085245381028, -3048.4426675370537, 0.004, -0.012, 0.978, 192.0, 0.0, 0.0, 0.0, 0.0, 0.0, 0.0, 0.0, 0.0, 0.0, 1.686054022632044E9, 0.0, 2023-06-06 14:20:22.632
187.0, 187500.0, -187500.02235174447, 187500.0, -12667.828818300823, 20448.247545748658, 7152.938205354, 1423.9402322697917, -2949.4244396000436, 0.004, -0.012, 0.978, 192.0, 0.0, 0.0, 0.0, 0.0, 0.0, 0.0, 0.0, 0.0, 0.0, 1.686054022636016E9, 0.0, 2023-06-06 14:20:22.636
188.0, 187500.0, -187500.02235174447, 187500.0, -12673.528513136926, 20485.798476433574, 7175.558170742771, 1459.054822809079, -2916.209747339457, 0.004, -0.012, 0.978, 192.0, 0.0, 0.0, 0.0, 0.0, 0.0, 0.0, 0.0, 0.0, 0.0, 1.686054022639015E9, 0.0, 2023-06-06 14:20:22.639
189.0, 187500.0, -187500.02235174447, 187500.0, -12695.142650025207, 20489.710031713254, 7145.4727227059275, 1432.2103777182554, -2926.156273622069, 0.004, -0.012, 0.978, 192.0, 0.0, 0.0, 255.0, 208.0, 30.0, 128.0, 0.0, 0.0, 0.0, 1.686054022643051E9, 0.0, 2023-06-06 14:20:22.643
190.0, 187500.0, -187500.02235174447, 187500.0, -12695.70144363659, 20466.866548879927, 7079.512724818316, 1336.1202283048904, -2844.2371301933686, 0.004, -0.012, 0.978, 192.0, 0.0, 0.0, 0.0, 0.0, 0.0, 0.0, 0.0, 0.0, 0.0, 1.686054022647187E9, 0.0, 2023-06-06 14:20:22.647
191.0, 187500.0, -187500.02235174447, 187500.0, -12696.37199597025, 20518.5437820606, 7062.167771120999, 1311.7568268486057, -2699.777805778719, 0.004, -0.012, 0.978, 192.0, 0.0, 0.0, 0.0, 0.0, 0.0, 0.0, 0.0, 0.0, 0.0, 1.686054022651167E9, 0.0, 2023-06-06 14:20:22.651
192.0, 187500.0, -187500.02235174447, 187500.0, -12690.962873812065, 20588.392983483434, 7145.7632953838465, 1415.8489007769706, -2751.343280237112, 0.004, -0.012, 0.978, 192.0, 0.0, 0.0, 0.0, 0.0, 0.0, 0.0, 0.0, 0.0, 0.0, 1.68605402265516E9, 0.0, 2023-06-06 14:20:22.655
193.0, 187500.0, -187500.02235174447, 187500.0, -12686.8948563212, 20616.913809408405, 7181.816659190257, 1446.1355145139116, -2809.3684088430896, 0.004, -0.012, 0.978, 192.0, 0.0, 0.0, 0.0, 0.0, 0.0, 0.0, 0.0, 0.0, 0.0, 1.68605402265918E9, 0.0, 2023-06-06 14:20:22.659
194.0, 187500.0, -187500.02235174447, 187500.0, -12709.358359498783, 20615.997387885738, 7156.335670511207, 1426.130703226412, -2859.8833513120835, 0.004, -0.012, 0.978, 192.0, 0.0, 0.0, 0.0, 0.0, 0.0, 0.0, 0.0, 0.0, 0.0, 1.686054022664184E9, 0.0, 2023-06-06 14:20:22.664
195.0, 187500.0, -187500.02235174447, 187500.0, -12698.674225649147, 20554.887718544927, 7087.469945844406, 1345.5973679539404, -2920.4565787859656, 0.004, -0.012, 0.978, 192.0, 0.0, 0.0, 0.0, 0.0, 0.0, 0.0, 0.0, 0.0, 0.0, 1.686054022667173E9, 0.0, 2023-06-06 14:20:22.667
196.0, 187500.0, -187500.02235174447, 187500.0, -12687.118373765752, 20492.951034659272, 7068.426259568484, 1308.7840448360498, -2942.920081963549, 0.004, -0.012, 0.978, 192.0, 0.0, 0.0, 0.0, 0.0, 0.0, 0.0, 0.0, 0.0, 0.0, 1.686054022671161E9, 0.0, 2023-06-06 14:20:22.671
197.0, 187500.0, -187500.02235174447, 187500.0, -12689.688824378112, 20513.961674447262, 7150.948900097478, 1420.5204153681298, -3013.8421671202386, 0.004, -0.012, 0.978, 192.0, 0.0, 0.0, 0.0, 0.0, 0.0, 0.0, 0.0, 0.0, 0.0, 1.686054022675157E9, 0.0, 2023-06-06 14:20:22.675
198.0, 187500.0, -187500.02235174447, 187500.0, -12680.457553918071, 20459.021086576115, 7174.977025386933, 1466.0956223125008, -3146.388011740209, 0.004, -0.012, 0.978, 192.0, 0.0, 0.0, 0.0, 0.0, 0.0, 0.0, 0.0, 0.0, 0.0, 1.68605402267918E9, 0.0, 2023-06-06 14:20:22.679
199.0, 187500.0, -187500.02235174447, 187500.0, -12708.263124020474, 20477.125999584914, 7145.025687816821, 1452.5951686614953, -3046.6098244917184, 0.002, -0.008, 0.976, 192.0, 0.0, 16.0, 255.0, 192.0, 30.0, 128.0, 0.0, 0.0, 0.0, 1.686054022683155E9, 0.0, 2023-06-06 14:20:22.683
200.0, 187500.0, -187500.02235174447, 187500.0, -12706.564391441869, 20421.13487972437, 7079.915056218512, 1353.5992924689403, -3039.814894177305, 0.002, -0.008, 0.976, 192.0, 0.0, 0.0, 0.0, 0.0, 0.0, 0.0, 0.0, 0.0, 0.0, 1.68605402268714E9, 0.0, 2023-06-06 14:20:22.687
201.0, 187500.0, -187500.02235174447, 187500.0, -12691.901647079188, 20384.455667073213, 7069.610902024616, 1313.0085245381028, -3017.6196119331853, 0.002, -0.008, 0.976, 192.0, 0.0, 0.0, 0.0, 0.0, 0.0, 0.0, 0.0, 0.0, 0.0, 1.686054022691149E9, 0.0, 2023-06-06 14:20:22.691
202.0, 187500.0, -187500.02235174447, 187500.0, -12696.640216903714, 20448.113435281924, 7136.263803990341, 1407.2434791616774, -2942.0036604408815, 0.002, -0.008, 0.976, 192.0, 0.0, 0.0, 0.0, 0.0, 0.0, 0.0, 0.0, 0.0, 0.0, 1.686054022695174E9, 0.0, 2023-06-06 14:20:22.695
203.0, 187500.0, -187500.02235174447, 187500.0, -12692.03575754592, 20468.744095414175, 7155.642766433092, 1441.7769243451269, -2919.5178055188426, 0.002, -0.008, 0.976, 192.0, 0.0, 0.0, 0.0, 0.0, 0.0, 0.0, 0.0, 0.0, 0.0, 1.686054022698286E9, 0.0, 2023-06-06 14:20:22.698
204.0, 187500.0, -187500.02235174447, 187500.0, -12711.794699644412, 20535.86638401346, 7142.164664526542, 1423.2696799361324, -2794.280981335757, 0.002, -0.008, 0.976, 192.0, 0.0, 0.0, 0.0, 0.0, 0.0, 0.0, 0.0, 0.0, 0.0, 1.686054022703296E9, 0.0, 2023-06-06 14:20:22.703
205.0, 187500.0, -187500.02235174447, 187500.0, -12718.65668519219, 20573.64083214293, 7077.635178284071, 1328.3865247233541, -2693.653427797965, 0.002, -0.008, 0.976, 192.0, 0.0, 0.0, 0.0, 0.0, 0.0, 0.0, 0.0, 0.0, 0.0, 1.686054022707302E9, 0.0, 2023-06-06 14:20:22.707
206.0, 187500.0, -187500.02235174447, 187500.0, -12704.508030951982, 20519.862534983462, 7059.083230386166, 1296.1329574743459, -2814.9116414680057, 0.002, -0.008, 0.976, 192.0, 0.0, 0.0, 0.0, 0.0, 0.0, 0.0, 0.0, 0.0, 0.0, 1.686054022711282E9, 0.0, 2023-06-06 14:20:22.711
207.0, 187500.0, -187500.02235174447, 187500.0, -12714.365150256772, 20577.77590486716, 7140.018897058832, 1402.1249296814121, -2819.091417681148, 0.002, -0.008, 0.976, 192.0, 0.0, 0.0, 0.0, 0.0, 0.0, 0.0, 0.0, 0.0, 0.0, 1.686054022715281E9, 0.0, 2023-06-06 14:20:22.715
208.0, 187500.0, -187500.02235174447, 187500.0, -12709.961856599077, 20612.68932970635, 7170.506676495872, 1436.926595798325, -2842.963080759416, 0.002, -0.008, 0.976, 192.0, 0.0, 0.0, 0.0, 0.0, 0.0, 0.0, 0.0, 0.0, 0.0, 1.686054022719289E9, 0.0, 2023-06-06 14:20:22.719
209.0, 187500.0, -187500.02235174447, 187500.0, -12713.60519094529, 20617.69612046434, 7149.741905896892, 1420.5874706014956, -2878.971741076916, 0.002, -0.01, 0.97, 192.0, 0.0, 16.0, 255.0, 176.0, 30.0, 80.0, 0.0, 0.0, 0.0, 1.686054022723326E9, 0.0, 2023-06-06 14:20:22.723
210.0, 187500.0, -187500.02235174447, 187500.0, -12705.983246086033, 20537.4980613587, 7088.833402256179, 1335.516731204597, -2939.2320441284232, 0.002, -0.01, 0.97, 192.0, 0.0, 0.0, 0.0, 0.0, 0.0, 0.0, 0.0, 0.0, 0.0, 1.686054022726285E9, 0.0, 2023-06-06 14:20:22.726
211.0, 187500.0, -187500.02235174447, 187500.0, -12684.972606298043, 20459.646935420864, 7073.880085215579, 1308.06878901348, -3030.8965481396376, 0.002, -0.01, 0.97, 192.0, 0.0, 0.0, 0.0, 0.0, 0.0, 0.0, 0.0, 0.0, 0.0, 1.686054022731292E9, 0.0, 2023-06-06 14:20:22.731
212.0, 187500.0, -187500.02235174447, 187500.0, -12691.65577789018, 20442.95018231275, 7154.011089087855, 1424.2978601810767, -3165.588160227318, 0.002, -0.01, 0.97, 192.0, 0.0, 0.0, 0.0, 0.0, 0.0, 0.0, 0.0, 0.0, 0.0, 1.686054022735268E9, 0.0, 2023-06-06 14:20:22.735
213.0, 187500.0, -187500.02235174447, 187500.0, -12697.310769237372, 20478.400049018866, 7183.224819090941, 1465.67093916785, -3058.3891938196653, 0.002, -0.01, 0.97, 192.0, 0.0, 0.0, 0.0, 0.0, 0.0, 0.0, 0.0, 0.0, 0.0, 1.686054022739397E9, 0.0, 2023-06-06 14:20:22.739
214.0, 187500.0, -187500.02235174447, 187500.0, -12722.076502093852, 20493.643938737387, 7163.085897336709, 1451.9022645833809, -2995.4019779446103, 0.002, -0.01, 0.97, 192.0, 0.0, 0.0, 0.0, 0.0, 0.0, 0.0, 0.0, 0.0, 0.0, 1.686054022743399E9, 0.0, 2023-06-06 14:20:22.743
215.0, 187500.0, -187500.02235174447, 187500.0, -12728.491452752525, 20434.210650230725, 7095.203649425942, 1356.4603157592196, -3008.589507173241, 0.002, -0.01, 0.97, 192.0, 0.0, 0.0, 0.0, 0.0, 0.0, 0.0, 0.0, 0.0, 0.0, 1.68605402274647E9, 0.0, 2023-06-06 14:20:22.746
216.0, 187500.0, -187500.02235174447, 187500.0, -12701.8481733618, 20390.3118241205, 7075.221189882897, 1313.4779111716641, -2995.3796262001547, 0.002, -0.01, 0.97, 192.0, 0.0, 0.0, 0.0, 0.0, 0.0, 0.0, 0.0, 0.0, 0.0, 1.686054022750422E9, 0.0, 2023-06-06 14:20:22.750
217.0, 187500.0, -187500.02235174447, 187500.0, -12694.069766291354, 20474.600252461463, 7155.218083288441, 1421.1462642128784, -2906.889069901594, 0.002, -0.01, 0.97, 192.0, 0.0, 0.0, 0.0, 0.0, 0.0, 0.0, 0.0, 0.0, 0.0, 1.686054022754394E9, 0.0, 2023-06-06 14:20:22.754
218.0, 187500.0, -187500.02235174447, 187500.0, -12689.800583100388, 20552.29491618811, 7188.008092404377, 1461.8487908659924, -2800.7853389722513, 0.002, -0.01, 0.97, 192.0, 0.0, 0.0, 0.0, 0.0, 0.0, 0.0, 0.0, 0.0, 0.0, 1.686054022758424E9, 0.0, 2023-06-06 14:20:22.758
219.0, 187500.0, -187500.02235174447, 187500.0, -12698.830687860333, 20677.375278160012, 7170.75254568488, 1442.8051045900709, -2599.4184731743903, 0.004, -0.01, 0.97, 192.0, 0.0, 32.0, 255.0, 176.0, 30.0, 80.0, 0.0, 0.0, 0.0, 1.686054022763411E9, 0.0, 2023-06-06 14:20:22.763
220.0, 187500.0, -187500.02235174447, 187500.0, -12692.303978479384, 20603.860390646507, 7097.952913993945, 1341.2834812740662, -2751.030355814738, 0.004, -0.01, 0.97, 192.0, 0.0, 0.0, 0.0, 0.0, 0.0, 0.0, 0.0, 0.0, 0.0, 1.686054022767393E9, 0.0, 2023-06-06 14:20:22.767
221.0, 187500.0, -187500.02235174447, 187500.0, -12681.195161485097, 20521.985950706716, 7072.047242170244, 1296.6023441079074, -2849.8697697961056, 0.004, -0.01, 0.97, 192.0, 0.0, 0.0, 0.0, 0.0, 0.0, 0.0, 0.0, 0.0, 0.0, 1.686054022771405E9, 0.0, 2023-06-06 14:20:22.771
222.0, 187500.0, -187500.02235174447, 187500.0, -12686.648987132192, 20591.388117240444, 7152.915853609545, 1412.7643600421382, -2820.611336304109, 0.004, -0.01, 0.97, 192.0, 0.0, 0.0, 0.0, 0.0, 0.0, 0.0, 0.0, 0.0, 0.0, 1.686054022774402E9, 0.0, 2023-06-06 14:20:22.774
223.0, 187500.0, -187500.02235174447, 187500.0, -12690.649949389692, 20618.813707687106, 7175.8934469096, 1448.1918750037999, -2837.1739789454914, 0.004, -0.01, 0.97, 192.0, 0.0, 0.0, 0.0, 0.0, 0.0, 0.0, 0.0, 0.0, 0.0, 1.686054022778533E9, 0.0, 2023-06-06 14:20:22.778
224.0, 187500.0, -187500.02235174447, 187500.0, -12712.912286867177, 20608.84482966004, 7153.7428681543915, 1422.7555898136604, -2872.6909008849743, 0.004, -0.01, 0.97, 192.0, 0.0, 0.0, 0.0, 0.0, 0.0, 0.0, 0.0, 0.0, 0.0, 1.686054022782542E9, 0.0, 2023-06-06 14:20:22.782
225.0, 187500.0, -187500.02235174447, 187500.0, -12703.368091984761, 20501.020014407637, 7086.151192921543, 1325.1231700328792, -3011.830510119261, 0.004, -0.01, 0.97, 192.0, 0.0, 0.0, 0.0, 0.0, 0.0, 0.0, 0.0, 0.0, 0.0, 1.686054022786543E9, 0.0, 2023-06-06 14:20:22.786
226.0, 187500.0, -187500.02235174447, 187500.0, -12684.346757453295, 20339.014570595573, 7061.676032742982, 1292.9143062727817, -3234.0962569828343, 0.004, -0.01, 0.97, 192.0, 0.0, 0.0, 0.0, 0.0, 0.0, 0.0, 0.0, 0.0, 0.0, 1.686054022791528E9, 0.0, 2023-06-06 14:20:22.791
227.0, 187500.0, -187500.02235174447, 187500.0, -12691.901647079188, 20416.105737221926, 7145.5844814282045, 1414.3289821540097, -3072.984882948981, 0.004, -0.01, 0.97, 192.0, 0.0, 0.0, 0.0, 0.0, 0.0, 0.0, 0.0, 0.0, 0.0, 1.686054022795528E9, 0.0, 2023-06-06 14:20:22.795
228.0, 187500.0, -187500.02235174447, 187500.0, -12699.23301926053, 20475.226101306213, 7176.60870273217, 1455.9032268408807, -2979.308721936789, 0.004, -0.01, 0.97, 192.0, 0.0, 0.0, 0.0, 0.0, 0.0, 0.0, 0.0, 0.0, 0.0, 1.686054022799563E9, 0.0, 2023-06-06 14:20:22.799
229.0, 187500.0, -187500.02235174447, 187500.0, -12712.37584500025, 20496.95199691677, 7161.7894961583015, 1442.7156976122496, -2953.224236157446, 0.004, -0.01, 0.97, 192.0, 0.0, 0.0, 0.0, 0.0, 0.0, 0.0, 0.0, 0.0, 0.0, 1.686054022802522E9, 0.0, 2023-06-06 14:20:22.802
230.0, 187500.0, -187500.02235174447, 187500.0, -12706.452632719593, 20442.078464278995, 7094.3989866255515, 1352.7946296685493, -2981.20862021549, -0.002, -0.008, 0.97, 192.0, 255.0, 240.0, 255.0, 192.0, 30.0, 80.0, 0.0, 0.0, 0.0, 1.686054022806628E9, 0.0, 2023-06-06 14:20:22.806
231.0, 187500.0, -187500.02235174447, 187500.0, -12688.794754599901, 20388.635443286355, 7064.4700007998945, 1306.2135942236894, -2985.3213411952665, -0.002, -0.008, 0.97, 192.0, 0.0, 0.0, 0.0, 0.0, 0.0, 0.0, 0.0, 0.0, 0.0, 1.686054022811446E9, 0.0, 2023-06-06 14:20:22.811
232.0, 187500.0, -187500.02235174447, 187500.0, -12683.69855686409, 20479.51763624163, 7137.828426102213, 1402.3037436370546, -2836.6822405674748, -0.002, -0.008, 0.97, 192.0, 0.0, 0.0, 0.0, 0.0, 0.0, 0.0, 0.0, 0.0, 0.0, 1.686054022814595E9, 0.0, 2023-06-06 14:20:22.814
233.0, 187500.0, -187500.02235174447, 187500.0, -12693.935655824622, 20640.494899808753, 7175.491115509405, 1455.2773779961321, -2597.0938917510384, -0.002, -0.008, 0.97, 192.0, 0.0, 0.0, 0.0, 0.0, 0.0, 0.0, 0.0, 0.0, 0.0, 1.686054022818665E9, 0.0, 2023-06-06 14:20:22.818
234.0, 187500.0, -187500.02235174447, 187500.0, -12715.527440968448, 20661.170263429914, 7157.967347856445, 1442.0674970230457, -2704.829300025618, -0.002, -0.008, 0.97, 192.0, 0.0, 0.0, 0.0, 0.0, 0.0, 0.0, 0.0, 0.0, 0.0, 1.686054022823648E9, 0.0, 2023-06-06 14:20:22.823
235.0, 187500.0, -187500.02235174447, 187500.0, -12703.368091984761, 20572.2550239867, 7093.21434416942, 1346.3796790098763, -2837.933938256972, -0.002, -0.008, 0.97, 192.0, 0.0, 0.0, 0.0, 0.0, 0.0, 0.0, 0.0, 0.0, 0.0, 1.686054022827653E9, 0.0, 2023-06-06 14:20:22.827
236.0, 187500.0, -187500.02235174447, 187500.0, -12680.055222517876, 20504.238665609202, 7070.549675291739, 1304.7383790896392, -2888.985322592893, -0.002, -0.008, 0.97, 192.0, 0.0, 0.0, 0.0, 0.0, 0.0, 0.0, 0.0, 0.0, 0.0, 1.686054022830666E9, 0.0, 2023-06-06 14:20:22.830
237.0, 187500.0, -187500.02235174447, 187500.0, -12692.527495923936, 20569.662221629886, 7144.846873861179, 1413.4349123757975, -2842.7172115704075, -0.002, -0.008, 0.97, 192.0, 0.0, 0.0, 0.0, 0.0, 0.0, 0.0, 0.0, 0.0, 0.0, 1.686054022834675E9, 0.0, 2023-06-06 14:20:22.834
238.0, 187500.0, -187500.02235174447, 187500.0, -12702.384615228728, 20609.04599536014, 7171.668967207547, 1452.9527965727802, -2838.984470246371, -0.002, -0.008, 0.97, 192.0, 0.0, 0.0, 0.0, 0.0, 0.0, 0.0, 0.0, 0.0, 0.0, 1.686054022838658E9, 0.0, 2023-06-06 14:20:22.838
239.0, 187500.0, -187500.02235174447, 187500.0, -12704.75390014099, 20587.65537591641, 7155.978042599922, 1442.8274563345262, -2929.3302213347224, -0.002, -0.008, 0.97, 192.0, 0.0, 0.0, 0.0, 0.0, 0.0, 0.0, 0.0, 0.0, 0.0, 1.686054022842634E9, 0.0, 2023-06-06 14:20:22.842
240.0, 187500.0, -187500.02235174447, 187500.0, -12684.994958042498, 20388.635443286355, 7078.2610271288195, 1337.1484085498344, -3198.8922594657256, -0.002, -0.008, 0.97, 192.0, 0.0, 0.0, 255.0, 160.0, 30.0, 128.0, 0.0, 0.0, 0.0, 1.68605402284664E9, 0.0, 2023-06-06 14:20:22.846
241.0, 187500.0, -187500.02235174447, 187500.0, -12673.997899770487, 20333.15841354828, 7055.037564639755, 1301.6314866103514, -3116.101398003268, -0.002, -0.008, 0.97, 192.0, 0.0, 0.0, 0.0, 0.0, 0.0, 0.0, 0.0, 0.0, 0.0, 1.686054022851664E9, 0.0, 2023-06-06 14:20:22.851
242.0, 187500.0, -187500.02235174447, 187500.0, -12683.407984186171, 20429.829708317484, 7140.130655781109, 1417.7935025445822, -2968.5798845982417, -0.002, -0.008, 0.97, 192.0, 0.0, 0.0, 0.0, 0.0, 0.0, 0.0, 0.0, 0.0, 0.0, 1.686054022854641E9, 0.0, 2023-06-06 14:20:22.854
243.0, 187500.0, -187500.02235174447, 187500.0, -12705.446804219104, 20474.15321757236, 7170.394917773595, 1457.6019594194843, -2927.8773579451276, -0.002, -0.008, 0.97, 192.0, 0.0, 0.0, 0.0, 0.0, 0.0, 0.0, 0.0, 0.0, 0.0, 1.686054022857785E9, 0.0, 2023-06-06 14:20:22.857
244.0, 187500.0, -187500.02235174447, 187500.0, -12737.14157785673, 20488.123057856927, 7147.596138429182, 1434.9819940307134, -2927.3632678226554, -0.002, -0.008, 0.97, 192.0, 0.0, 0.0, 0.0, 0.0, 0.0, 0.0, 0.0, 0.0, 0.0, 1.686054022862775E9, 0.0, 2023-06-06 14:20:22.862
245.0, 187500.0, -187500.02235174447, 187500.0, -12701.445841961604, 20427.66158910532, 7074.7965067382465, 1325.9278328332703, -2970.479782876943, -0.002, -0.008, 0.97, 192.0, 0.0, 0.0, 0.0, 0.0, 0.0, 0.0, 0.0, 0.0, 0.0, 1.686054022866764E9, 0.0, 2023-06-06 14:20:22.866
246.0, 187500.0, -187500.02235174447, 187500.0, -12673.014423014454, 20423.213591958713, 7058.278567585775, 1293.6519138398069, -2892.405139494555, -0.002, -0.008, 0.97, 192.0, 0.0, 0.0, 0.0, 0.0, 0.0, 0.0, 0.0, 0.0, 0.0, 1.686054022870773E9, 0.0, 2023-06-06 14:20:22.870
247.0, 187500.0, -187500.02235174447, 187500.0, -12680.166981240152, 20607.682538948364, 7138.342516224685, 1397.2746011346105, -2618.819787361597, -0.002, -0.008, 0.97, 192.0, 0.0, 0.0, 0.0, 0.0, 0.0, 0.0, 0.0, 0.0, 0.0, 1.686054022874778E9, 0.0, 2023-06-06 14:20:22.874
248.0, 187500.0, -187500.02235174447, 187500.0, -12692.683958135123, 20645.456987077832, 7165.812810160257, 1435.0043457751688, -2695.5086225877553, -0.002, -0.008, 0.97, 192.0, 0.0, 0.0, 0.0, 0.0, 0.0, 0.0, 0.0, 0.0, 0.0, 1.686054022878774E9, 0.0, 2023-06-06 14:20:22.878
249.0, 187500.0, -187500.02235174447, 187500.0, -12718.410816003183, 20627.776757213684, 7145.27155700583, 1412.8537670199594, -2793.610429002098, -0.002, -0.008, 0.97, 192.0, 0.0, 0.0, 0.0, 0.0, 0.0, 0.0, 0.0, 0.0, 0.0, 1.686054022882785E9, 0.0, 2023-06-06 14:20:22.882
250.0, 187500.0, -187500.02235174447, 187500.0, -12697.735452382023, 20536.40282588039, 7071.957835192423, 1306.6382773683404, -2888.6500464260635, 0.004, -0.012, 0.974, 192.0, 0.0, 32.0, 255.0, 160.0, 30.0, 112.0, 0.0, 0.0, 0.0, 1.686054022885778E9, 0.0, 2023-06-06 14:20:22.885
251.0, 187500.0, -187500.02235174447, 187500.0, -12669.41579215715, 20492.2357788367, 7056.758648962814, 1280.8443642669158, -2903.9162878890384, 0.004, -0.012, 0.974, 192.0, 0.0, 0.0, 0.0, 0.0, 0.0, 0.0, 0.0, 0.0, 0.0, 1.686054022890788E9, 0.0, 2023-06-06 14:20:22.890
252.0, 187500.0, -187500.02235174447, 187500.0, -12662.062068231353, 20559.715695347273, 7133.559242911249, 1385.8305079734932, -2846.8746360390946, 0.004, -0.012, 0.974, 192.0, 0.0, 0.0, 0.0, 0.0, 0.0, 0.0, 0.0, 0.0, 0.0, 1.686054022894764E9, 0.0, 2023-06-06 14:20:22.894
253.0, 187500.0, -187500.02235174447, 187500.0, -12655.334193150306, 20548.49511963071, 7158.481437978917, 1419.7604560566492, -2920.5906892526973, 0.004, -0.012, 0.974, 192.0, 0.0, 0.0, 0.0, 0.0, 0.0, 0.0, 0.0, 0.0, 0.0, 1.6860540228989E9, 0.0, 2023-06-06 14:20:22.898
254.0, 187500.0, -187500.02235174447, 187500.0, -12670.533379379915, 20449.231022504693, 7142.634051160104, 1422.5991276024733, -3134.876863345726, 0.004, -0.012, 0.974, 192.0, 0.0, 0.0, 0.0, 0.0, 0.0, 0.0, 0.0, 0.0, 0.0, 1.686054022902913E9, 0.0, 2023-06-06 14:20:22.902
255.0, 187500.0, -187500.02235174447, 187500.0, -12669.974585768532, 20383.092210661438, 7081.144402163554, 1340.2329492846668, -3093.4590808700423, 0.004, -0.012, 0.974, 192.0, 0.0, 0.0, 0.0, 0.0, 0.0, 0.0, 0.0, 0.0, 0.0, 1.686054022906895E9, 0.0, 2023-06-06 14:20:22.906
0.0, 187500.0, -187500.02235174447, 187500.0, -12660.02805948592, 20343.060236341982, 7050.4331052819625, 1302.324390688466, -3027.3426207712437, 0.004, -0.012, 0.974, 192.0, 0.0, 0.0, 0.0, 0.0, 0.0, 0.0, 0.0, 0.0, 0.0, 1.686054022909883E9, 0.0, 2023-06-06 14:20:22.909
1.0, 187500.0, -187500.02235174447, 187500.0, -12660.720963564036, 20431.930772296284, 7136.330859223707, 1418.2181856892332, -2919.2272328409235, 0.004, -0.012, 0.974, 192.0, 0.0, 0.0, 0.0, 0.0, 0.0, 0.0, 0.0, 0.0, 0.0, 1.686054022913907E9, 0.0, 2023-06-06 14:20:22.913
2.0, 187500.0, -187500.02235174447, 187500.0, -12660.922129264132, 20482.982156632206, 7171.84778116319, 1462.3628809884647, -2885.6549126690525, 0.004, -0.012, 0.974, 192.0, 0.0, 0.0, 0.0, 0.0, 0.0, 0.0, 0.0, 0.0, 0.0, 1.6860540229189E9, 0.0, 2023-06-06 14:20:22.918
3.0, 187500.0, -187500.02235174447, 187500.0, -12676.054260260375, 20495.566188760542, 7155.12867631062, 1451.0752500385345, -2885.3196365022227, 0.004, -0.012, 0.974, 192.0, 0.0, 0.0, 0.0, 0.0, 0.0, 0.0, 0.0, 0.0, 0.0, 1.686054022922922E9, 0.0, 2023-06-06 14:20:22.922
4.0, 187500.0, -187500.02235174447, 187500.0, -12688.101850521785, 20475.561377473045, 7089.839230756668, 1370.3407490659654, -2851.7473163303516, 0.002, -0.014, 0.972, 192.0, 0.0, 16.0, 255.0, 144.0, 30.0, 96.0, 0.0, 0.0, 0.0, 1.686054022927889E9, 0.0, 2023-06-06 14:20:22.927
5.0, 187500.0, -187500.02235174447, 187500.0, -12682.156286496675, 20538.30272415909, 7066.928692689979, 1329.0347253125578, -2656.974215146806, 0.002, -0.014, 0.972, 192.0, 0.0, 0.0, 0.0, 0.0, 0.0, 0.0, 0.0, 0.0, 0.0, 1.68605402293088E9, 0.0, 2023-06-06 14:20:22.930
6.0, 187500.0, -187500.02235174447, 187500.0, -12674.757859081968, 20613.046957617637, 7148.780780885313, 1427.0024212601688, -2686.9926079502834, 0.002, -0.014, 0.972, 192.0, 0.0, 0.0, 0.0, 0.0, 0.0, 0.0, 0.0, 0.0, 0.0, 1.686054022935075E9, 0.0, 2023-06-06 14:20:22.935
7.0, 187500.0, -187500.02235174447, 187500.0, -12674.914321293154, 20622.948780411338, 7171.981891629922, 1456.3502617299869, -2763.2344082873356, 0.002, -0.014, 0.972, 192.0, 0.0, 0.0, 0.0, 0.0, 0.0, 0.0, 0.0, 0.0, 0.0, 1.686054022938056E9, 0.0, 2023-06-06 14:20:22.938
8.0, 187500.0, -187500.02235174447, 187500.0, -12693.399213957693, 20619.305446065122, 7155.106324566165, 1444.2356162352105, -2812.0506181777264, 0.002, -0.014, 0.972, 192.0, 0.0, 0.0, 0.0, 0.0, 0.0, 0.0, 0.0, 0.0, 0.0, 1.686054022942036E9, 0.0, 2023-06-06 14:20:22.942
9.0, 187500.0, -187500.02235174447, 187500.0, -12686.157248754174, 20536.53693634712, 7086.866448744113, 1341.328184762977, -2893.567430206231, 0.002, -0.014, 0.972, 192.0, 0.0, 0.0, 0.0, 0.0, 0.0, 0.0, 0.0, 0.0, 0.0, 1.686054022946007E9, 0.0, 2023-06-06 14:20:22.946
10.0, 187500.0, -187500.02235174447, 187500.0, -12648.718076791534, 20463.066752322527, 7061.16194262051, 1288.131032959346, -2924.926927677027, 0.002, -0.014, 0.972, 192.0, 0.0, 0.0, 0.0, 0.0, 0.0, 0.0, 0.0, 0.0, 0.0, 1.686054022951037E9, 0.0, 2023-06-06 14:20:22.951
11.0, 187500.0, -187500.02235174447, 187500.0, -12648.785132024901, 20515.839220981507, 7142.343478482185, 1411.4903106081856, -2923.541119520798, 0.002, -0.014, 0.972, 192.0, 0.0, 0.0, 0.0, 0.0, 0.0, 0.0, 0.0, 0.0, 0.0, 1.686054022955049E9, 0.0, 2023-06-06 14:20:22.955
12.0, 187500.0, -187500.02235174447, 187500.0, -12655.445951872582, 20453.276688251102, 7171.780725929824, 1461.9158460993585, -3122.6951626175837, 0.002, -0.014, 0.972, 192.0, 0.0, 0.0, 0.0, 0.0, 0.0, 0.0, 0.0, 0.0, 0.0, 1.686054022959669E9, 0.0, 2023-06-06 14:20:22.959
13.0, 187500.0, -187500.02235174447, 187500.0, -12668.477018890026, 20436.982266543182, 7152.245301275886, 1437.2618719651548, -3059.1268013866907, 0.002, -0.014, 0.972, 192.0, 0.0, 0.0, 0.0, 0.0, 0.0, 0.0, 0.0, 0.0, 0.0, 1.686054022963142E9, 0.0, 2023-06-06 14:20:22.963
14.0, 187500.0, -187500.02235174447, 187500.0, -12667.761763067456, 20370.016440155083, 7081.658492286026, 1335.4273242267757, -3039.166693588101, 0.002, -0.014, 0.972, 192.0, 0.0, 0.0, 255.0, 128.0, 30.0, 112.0, 0.0, 0.0, 0.0, 1.686054022966138E9, 0.0, 2023-06-06 14:20:22.966
15.0, 187500.0, -187500.02235174447, 187500.0, -12667.001803755977, 20335.550050204998, 7061.117239131599, 1305.8783180568598, -3010.8023298743165, 0.002, -0.014, 0.972, 192.0, 0.0, 0.0, 0.0, 0.0, 0.0, 0.0, 0.0, 0.0, 0.0, 1.686054022970144E9, 0.0, 2023-06-06 14:20:22.970
16.0, 187500.0, -187500.02235174447, 187500.0, -12684.570274897847, 20430.209687973223, 7142.119961037632, 1422.8897002803924, -2924.7481137213845, 0.002, -0.014, 0.972, 192.0, 0.0, 0.0, 0.0, 0.0, 0.0, 0.0, 0.0, 0.0, 0.0, 1.686054022974168E9, 0.0, 2023-06-06 14:20:22.974
17.0, 187500.0, -187500.02235174447, 187500.0, -12668.253501445473, 20467.80532214705, 7170.506676495872, 1454.7632878736601, -2903.469252999932, 0.002, -0.014, 0.972, 192.0, 0.0, 0.0, 0.0, 0.0, 0.0, 0.0, 0.0, 0.0, 0.0, 1.686054022979175E9, 0.0, 2023-06-06 14:20:22.979
18.0, 187500.0, -187500.02235174447, 187500.0, -12682.089231263308, 20527.21625890926, 7165.455182248972, 1460.060651309568, -2821.03601944876, 0.002, -0.014, 0.972, 192.0, 0.0, 0.0, 0.0, 0.0, 0.0, 0.0, 0.0, 0.0, 0.0, 1.686054022983178E9, 0.0, 2023-06-06 14:20:22.983
19.0, 187500.0, -187500.02235174447, 187500.0, -12699.165964027163, 20587.02952707166, 7102.758539051836, 1373.2241241007, -2663.81384895013, 0.002, -0.014, 0.972, 192.0, 0.0, 0.0, 0.0, 0.0, 0.0, 0.0, 0.0, 0.0, 0.0, 1.686054022987243E9, 0.0, 2023-06-06 14:20:22.987
20.0, 187500.0, -187500.02235174447, 187500.0, -12681.46338241856, 20534.234706668223, 7069.946178191445, 1318.2611844850999, -2780.31114105119, 0.002, -0.014, 0.972, 192.0, 0.0, 0.0, 0.0, 0.0, 0.0, 0.0, 0.0, 0.0, 0.0, 1.686054022990131E9, 0.0, 2023-06-06 14:20:22.990
21.0, 187500.0, -187500.02235174447, 187500.0, -12674.46728640405, 20596.55137020962, 7150.36775474164, 1430.355182928465, -2786.12259460957, 0.002, -0.014, 0.972, 192.0, 0.0, 0.0, 0.0, 0.0, 0.0, 0.0, 0.0, 0.0, 0.0, 1.686054022999066E9, 0.0, 2023-06-06 14:20:22.999
22.0, 187500.0, -187500.02235174447, 187500.0, -12668.432315401116, 20630.928353181884, 7187.6728162375475, 1475.6845206838275, -2802.3276093396676, 0.002, -0.014, 0.972, 192.0, 0.0, 0.0, 0.0, 0.0, 0.0, 0.0, 0.0, 0.0, 0.0, 1.686054022999168E9, 0.0, 2023-06-06 14:20:22.999
23.0, 187500.0, -187500.02235174447, 187500.0, -12672.768553825445, 20629.430786303375, 7172.093650352198, 1462.7875641331154, -2836.1681504450025, 0.002, -0.014, 0.972, 192.0, 0.0, 0.0, 0.0, 0.0, 0.0, 0.0, 0.0, 0.0, 0.0, 1.686054023002144E9, 0.0, 2023-06-06 14:20:23.002
24.0, 187500.0, -187500.02235174447, 187500.0, -12662.911434520654, 20550.663238842873, 7095.293056403763, 1361.2659408171107, -2906.151462334569, 0.002, -0.014, 0.972, 192.0, 0.0, 0.0, 255.0, 128.0, 30.0, 112.0, 0.0, 0.0, 0.0, 1.686054023006181E9, 0.0, 2023-06-06 14:20:23.006
25.0, 187500.0, -187500.02235174447, 187500.0, -12656.161207695151, 20459.5798801875, 7061.385460065063, 1312.7179518601838, -3005.2367455049452, 0.002, -0.014, 0.972, 192.0, 0.0, 0.0, 0.0, 0.0, 0.0, 0.0, 0.0, 0.0, 0.0, 1.686054023011151E9, 0.0, 2023-06-06 14:20:23.011
26.0, 187500.0, -187500.02235174447, 187500.0, -12650.193291925585, 20416.70923432222, 7144.131618038609, 1418.866386278437, -3146.4774187180305, 0.002, -0.014, 0.972, 192.0, 0.0, 0.0, 0.0, 0.0, 0.0, 0.0, 0.0, 0.0, 0.0, 1.68605402301527E9, 0.0, 2023-06-06 14:20:23.015
27.0, 187500.0, -187500.02235174447, 187500.0, -12653.389591382695, 20465.681906423797, 7189.282141838329, 1479.8866486414254, -3027.186158560057, 0.002, -0.014, 0.972, 192.0, 0.0, 0.0, 0.0, 0.0, 0.0, 0.0, 0.0, 0.0, 0.0, 1.686054023018284E9, 0.0, 2023-06-06 14:20:23.018
28.0, 187500.0, -187500.02235174447, 187500.0, -12679.764649839957, 20506.697357499284, 7172.630092219126, 1485.1169568439673, -2952.307814634778, 0.002, -0.014, 0.972, 192.0, 0.0, 0.0, 0.0, 0.0, 0.0, 0.0, 0.0, 0.0, 0.0, 1.686054023022278E9, 0.0, 2023-06-06 14:20:23.022
29.0, 187500.0, -187500.02235174447, 187500.0, -12670.287510190907, 20436.825804331995, 7099.383425639085, 1381.6507317603507, -2978.7499283254065, 0.002, -0.014, 0.972, 192.0, 0.0, 0.0, 0.0, 0.0, 0.0, 0.0, 0.0, 0.0, 0.0, 1.686054023027035E9, 0.0, 2023-06-06 14:20:23.027
30.0, 187500.0, -187500.02235174447, 187500.0, -12649.612146569747, 20381.70640250521, 7072.561332292716, 1329.9958503241362, -2980.2027917150012, 0.002, -0.014, 0.972, 192.0, 0.0, 0.0, 0.0, 0.0, 0.0, 0.0, 0.0, 0.0, 0.0, 1.686054023030269E9, 0.0, 2023-06-06 14:20:23.030
31.0, 187500.0, -187500.02235174447, 187500.0, -12659.178693196618, 20446.369999214414, 7138.677792391514, 1425.4601508927526, -2910.286535058801, 0.002, -0.014, 0.972, 192.0, 0.0, 0.0, 0.0, 0.0, 0.0, 0.0, 0.0, 0.0, 0.0, 1.686054023034282E9, 0.0, 2023-06-06 14:20:23.034
32.0, 187500.0, -187500.02235174447, 187500.0, -12669.348736923783, 20525.58458156402, 7171.512504996361, 1477.0479770956013, -2808.250821620324, 0.002, -0.014, 0.972, 192.0, 0.0, 0.0, 0.0, 0.0, 0.0, 0.0, 0.0, 0.0, 0.0, 1.686054023038286E9, 0.0, 2023-06-06 14:20:23.038
33.0, 187500.0, -187500.02235174447, 187500.0, -12679.161152739664, 20649.301487124147, 7164.270539792841, 1461.6476251658949, -2607.6662668783983, 0.002, -0.014, 0.972, 192.0, 0.0, 0.0, 0.0, 0.0, 0.0, 0.0, 0.0, 0.0, 0.0, 1.686054023043273E9, 0.0, 2023-06-06 14:20:23.043
34.0, 187500.0, -187500.02235174447, 187500.0, -12658.016402484942, 20569.662221629886, 7088.788698767269, 1341.0599638295132, -2758.0041000847937, 0.002, -0.014, 0.972, 192.0, 0.0, 0.0, 255.0, 160.0, 30.0, 144.0, 0.0, 0.0, 0.0, 1.686054023046264E9, 0.0, 2023-06-06 14:20:23.046
35.0, 187500.0, -187500.02235174447, 187500.0, -12636.871652230222, 20499.991834162694, 7061.988957165356, 1297.2728964415667, -2839.766781302307, 0.002, -0.014, 0.972, 192.0, 0.0, 0.0, 0.0, 0.0, 0.0, 0.0, 0.0, 0.0, 0.0, 1.686054023050416E9, 0.0, 2023-06-06 14:20:23.050
36.0, 187500.0, -187500.02235174447, 187500.0, -12660.944481008588, 20559.156901735892, 7131.45817893245, 1409.0763222070125, -2807.736731497852, 0.002, -0.014, 0.972, 192.0, 0.0, 0.0, 0.0, 0.0, 0.0, 0.0, 0.0, 0.0, 0.0, 1.686054023054417E9, 0.0, 2023-06-06 14:20:23.054
37.0, 187500.0, -187500.02235174447, 187500.0, -12674.154361981675, 20590.896378862428, 7163.108249081165, 1453.3327762285205, -2819.9184322259944, 0.002, -0.014, 0.972, 192.0, 0.0, 0.0, 0.0, 0.0, 0.0, 0.0, 0.0, 0.0, 0.0, 1.686054023058398E9, 0.0, 2023-06-06 14:20:23.058
38.0, 187500.0, -187500.02235174447, 187500.0, -12683.36328069726, 20618.32196930909, 7163.979967114922, 1462.7875641331154, -2833.754162043829, 0.002, -0.014, 0.972, 192.0, 0.0, 0.0, 0.0, 0.0, 0.0, 0.0, 0.0, 0.0, 0.0, 1.686054023062409E9, 0.0, 2023-06-06 14:20:23.062
39.0, 187500.0, -187500.02235174447, 187500.0, -12674.46728640405, 20526.188078664312, 7095.136594192576, 1369.6925484767614, -2967.886980520127, 0.002, -0.014, 0.972, 192.0, 0.0, 0.0, 0.0, 0.0, 0.0, 0.0, 0.0, 0.0, 0.0, 1.686054023066446E9, 0.0, 2023-06-06 14:20:23.066
40.0, 187500.0, -187500.02235174447, 187500.0, -12653.926033249621, 20347.262364299582, 7060.938425175957, 1313.3661524493878, -3207.654143292206, 0.002, -0.014, 0.972, 192.0, 0.0, 0.0, 0.0, 0.0, 0.0, 0.0, 0.0, 0.0, 0.0, 1.686054023071396E9, 0.0, 2023-06-06 14:20:23.071
41.0, 187500.0, -187500.02235174447, 187500.0, -12662.330289164816, 20400.772440525587, 7133.894519078079, 1413.546671098074, -3058.791525219861, 0.002, -0.014, 0.972, 192.0, 0.0, 0.0, 0.0, 0.0, 0.0, 0.0, 0.0, 0.0, 0.0, 1.686054023074395E9, 0.0, 2023-06-06 14:20:23.074
42.0, 187500.0, -187500.02235174447, 187500.0, -12680.189332984608, 20461.6809441663, 7164.717574681947, 1460.5300379431294, -2967.372890397655, 0.002, -0.014, 0.972, 192.0, 0.0, 0.0, 0.0, 0.0, 0.0, 0.0, 0.0, 0.0, 0.0, 1.686054023077414E9, 0.0, 2023-06-06 14:20:23.077
43.0, 187500.0, -187500.02235174447, 187500.0, -12699.501240193993, 20489.754735202165, 7158.414382745551, 1460.3065204985762, -2940.0143551843594, 0.002, -0.014, 0.972, 192.0, 0.0, 0.0, 0.0, 0.0, 0.0, 0.0, 0.0, 0.0, 0.0, 1.686054023082447E9, 0.0, 2023-06-06 14:20:23.082
44.0, 187500.0, -187500.02235174447, 187500.0, -12675.920149793643, 20431.930772296284, 7092.767309280313, 1364.5516472520408, -2973.5866753562304, -0.002, -0.016, 0.976, 192.0, 255.0, 240.0, 255.0, 128.0, 30.0, 128.0, 0.0, 0.0, 0.0, 1.686054023086584E9, 0.0, 2023-06-06 14:20:23.086
45.0, 187500.0, -187500.02235174447, 187500.0, -12651.869672759733, 20382.064030416495, 7068.426259568484, 1316.4283414397648, -2978.8393353032275, -0.002, -0.016, 0.976, 192.0, 0.0, 0.0, 0.0, 0.0, 0.0, 0.0, 0.0, 0.0, 0.0, 1.686054023090396E9, 0.0, 2023-06-06 14:20:23.090
46.0, 187500.0, -187500.02235174447, 187500.0, -12646.818178512834, 20467.872377380416, 7145.807998872758, 1415.9606594992472, -2828.7473712858405, -0.002, -0.016, 0.976, 192.0, 0.0, 0.0, 0.0, 0.0, 0.0, 0.0, 0.0, 0.0, 0.0, 1.68605402309454E9, 0.0, 2023-06-06 14:20:23.094
47.0, 187500.0, -187500.02235174447, 187500.0, -12660.184521697107, 20610.297693049633, 7182.598970246193, 1464.57570368954, -2589.9636852697954, -0.002, -0.016, 0.976, 192.0, 0.0, 0.0, 0.0, 0.0, 0.0, 0.0, 0.0, 0.0, 0.0, 1.68605402309752E9, 0.0, 2023-06-06 14:20:23.097
48.0, 187500.0, -187500.02235174447, 187500.0, -12674.46728640405, 20626.12272812399, 7174.5299904978265, 1462.6534536663835, -2683.572791048621, -0.002, -0.016, 0.976, 192.0, 0.0, 0.0, 0.0, 0.0, 0.0, 0.0, 0.0, 0.0, 0.0, 1.686054023101632E9, 0.0, 2023-06-06 14:20:23.101
49.0, 187500.0, -187500.02235174447, 187500.0, -12684.883199320222, 20547.35518066349, 7099.383425639085, 1369.2231618432, -2820.991315959849, -0.002, -0.016, 0.976, 192.0, 0.0, 0.0, 0.0, 0.0, 0.0, 0.0, 0.0, 0.0, 0.0, 1.686054023105525E9, 0.0, 2023-06-06 14:20:23.105
50.0, 187500.0, -187500.02235174447, 187500.0, -12679.65289111768, 20473.415610005333, 7058.323271074685, 1315.3778094503652, -2889.2535435263567, -0.002, -0.016, 0.976, 192.0, 0.0, 0.0, 0.0, 0.0, 0.0, 0.0, 0.0, 0.0, 0.0, 1.686054023109584E9, 0.0, 2023-06-06 14:20:23.109
51.0, 187500.0, -187500.02235174447, 187500.0, -12677.909455050167, 20545.142357962413, 7139.974193569922, 1432.0762672515234, -2839.319746413201, -0.002, -0.016, 0.976, 192.0, 0.0, 0.0, 0.0, 0.0, 0.0, 0.0, 0.0, 0.0, 0.0, 1.686054023114519E9, 0.0, 2023-06-06 14:20:23.114
52.0, 187500.0, -187500.02235174447, 187500.0, -12676.635405616213, 20597.870123132485, 7180.475554522938, 1485.6757504553498, -2832.3012986542344, -0.002, -0.016, 0.976, 192.0, 0.0, 0.0, 0.0, 0.0, 0.0, 0.0, 0.0, 0.0, 0.0, 1.686054023118518E9, 0.0, 2023-06-06 14:20:23.118
53.0, 187500.0, -187500.02235174447, 187500.0, -12681.441030674105, 20584.772000881672, 7168.740888683902, 1480.4230905083527, -2923.0046776538707, -0.002, -0.016, 0.976, 192.0, 0.0, 0.0, 0.0, 0.0, 0.0, 0.0, 0.0, 0.0, 0.0, 1.686054023122527E9, 0.0, 2023-06-06 14:20:23.122
54.0, 187500.0, -187500.02235174447, 187500.0, -12668.164094467653, 20392.859922988406, 7090.196858667953, 1374.6322840013843, -3199.4734048215637, -0.002, -0.016, 0.976, 192.0, 0.0, 0.0, 255.0, 128.0, 30.0, 144.0, 0.0, 0.0, 0.0, 1.686054023125543E9, 0.0, 2023-06-06 14:20:23.125
55.0, 187500.0, -187500.02235174447, 187500.0, -12662.911434520654, 20328.30808500148, 7060.781962964769, 1332.968632336692, -3124.1256742627234, -0.002, -0.016, 0.976, 192.0, 0.0, 0.0, 0.0, 0.0, 0.0, 0.0, 0.0, 0.0, 0.0, 1.686054023129649E9, 0.0, 2023-06-06 14:20:23.129
56.0, 187500.0, -187500.02235174447, 187500.0, -12678.490600406003, 20415.591647099453, 7132.352248710662, 1438.7817905881157, -2980.1357364816354, -0.002, -0.016, 0.976, 192.0, 0.0, 0.0, 0.0, 0.0, 0.0, 0.0, 0.0, 0.0, 0.0, 1.686054023133647E9, 0.0, 2023-06-06 14:20:23.133
57.0, 187500.0, -187500.02235174447, 187500.0, -12678.714117850557, 20462.932641855794, 7169.836124162212, 1478.8808201409365, -2928.1008753896804, -0.002, -0.016, 0.976, 192.0, 0.0, 0.0, 0.0, 0.0, 0.0, 0.0, 0.0, 0.0, 0.0, 1.686054023137713E9, 0.0, 2023-06-06 14:20:23.137
58.0, 187500.0, -187500.02235174447, 187500.0, -12694.60620815828, 20492.81692419254, 7165.030499104321, 1479.9984073637017, -2907.961953635449, -0.002, -0.016, 0.976, 192.0, 0.0, 0.0, 0.0, 0.0, 0.0, 0.0, 0.0, 0.0, 0.0, 1.686054023142645E9, 0.0, 2023-06-06 14:20:23.142
59.0, 187500.0, -187500.02235174447, 187500.0, -12680.03287077342, 20431.90842055183, 7091.73912903537, 1379.3708538259095, -2953.4030501130883, -0.002, -0.016, 0.976, 192.0, 0.0, 0.0, 0.0, 0.0, 0.0, 0.0, 0.0, 0.0, 0.0, 1.686054023146679E9, 0.0, 2023-06-06 14:20:23.146
60.0, 187500.0, -187500.02235174447, 187500.0, -12660.519797863937, 20395.51978057859, 7055.797523951236, 1320.2728414860776, -2895.7355494183957, -0.002, -0.016, 0.976, 192.0, 0.0, 0.0, 0.0, 0.0, 0.0, 0.0, 0.0, 0.0, 0.0, 1.686054023150668E9, 0.0, 2023-06-06 14:20:23.150
61.0, 187500.0, -187500.02235174447, 187500.0, -12680.234036473517, 20581.665108402387, 7134.475664433917, 1430.0422585060905, -2608.716798867798, -0.002, -0.016, 0.976, 192.0, 0.0, 0.0, 0.0, 0.0, 0.0, 0.0, 0.0, 0.0, 0.0, 1.686054023153636E9, 0.0, 2023-06-06 14:20:23.153
62.0, 187500.0, -187500.02235174447, 187500.0, -12687.476001677038, 20622.5688007556, 7167.377432272128, 1469.448383980797, -2685.1374131604925, -0.002, -0.016, 0.976, 192.0, 0.0, 0.0, 0.0, 0.0, 0.0, 0.0, 0.0, 0.0, 0.0, 1.686054023157691E9, 0.0, 2023-06-06 14:20:23.157
63.0, 187500.0, -187500.02235174447, 187500.0, -12702.742243140012, 20619.84188793205, 7162.147124069586, 1474.0528433385903, -2766.5201147222656, -0.002, -0.016, 0.976, 192.0, 0.0, 0.0, 0.0, 0.0, 0.0, 0.0, 0.0, 0.0, 0.0, 1.686054023161663E9, 0.0, 2023-06-06 14:20:23.161
64.0, 187500.0, -187500.02235174447, 187500.0, -12711.437071733126, 20560.140378491924, 7093.951951736445, 1391.2619818761327, -2855.480057654388, 0.002, -0.02, 0.974, 192.0, 0.0, 16.0, 255.0, 96.0, 30.0, 112.0, 0.0, 0.0, 0.0, 1.686054023165779E9, 0.0, 2023-06-06 14:20:23.165
65.0, 187500.0, -187500.02235174447, 187500.0, -12682.64802487469, 20493.77804920412, 7063.620634510593, 1332.4992457031306, -2904.6538954560633, 0.002, -0.02, 0.974, 192.0, 0.0, 0.0, 0.0, 0.0, 0.0, 0.0, 0.0, 0.0, 0.0, 1.686054023170996E9, 0.0, 2023-06-06 14:20:23.170
66.0, 187500.0, -187500.02235174447, 187500.0, -12667.292376433896, 20551.043218498617, 7139.102475536165, 1431.7409910846939, -2848.4839616398767, 0.002, -0.02, 0.974, 192.0, 0.0, 0.0, 0.0, 0.0, 0.0, 0.0, 0.0, 0.0, 0.0, 1.686054023174786E9, 0.0, 2023-06-06 14:20:23.174
67.0, 187500.0, -187500.02235174447, 187500.0, -12668.678184590124, 20566.3541634505, 7172.719499196947, 1480.8477736530035, -2907.2243460684235, 0.002, -0.02, 0.974, 192.0, 0.0, 0.0, 0.0, 0.0, 0.0, 0.0, 0.0, 0.0, 0.0, 1.686054023178785E9, 0.0, 2023-06-06 14:20:23.178
68.0, 187500.0, -187500.02235174447, 187500.0, -12677.8423998168, 20465.95012735726, 7163.242359547897, 1482.3006370425985, -3131.2335289995112, 0.002, -0.02, 0.974, 192.0, 0.0, 0.0, 0.0, 0.0, 0.0, 0.0, 0.0, 0.0, 0.0, 1.686054023181812E9, 0.0, 2023-06-06 14:20:23.181
69.0, 187500.0, -187500.02235174447, 187500.0, -12676.166018982653, 20389.954196209215, 7091.850887757646, 1383.6847405057838, -3103.4503106415646, 0.002, -0.02, 0.974, 192.0, 0.0, 0.0, 0.0, 0.0, 0.0, 0.0, 0.0, 0.0, 0.0, 1.686054023185763E9, 0.0, 2023-06-06 14:20:23.185
70.0, 187500.0, -187500.02235174447, 187500.0, -12661.235053686507, 20333.4489862262, 7056.803352451725, 1322.6421263983402, -3047.7050599700287, 0.002, -0.02, 0.974, 192.0, 0.0, 0.0, 0.0, 0.0, 0.0, 0.0, 0.0, 0.0, 0.0, 1.686054023189826E9, 0.0, 2023-06-06 14:20:23.189
71.0, 187500.0, -187500.02235174447, 187500.0, -12669.348736923783, 20397.598492812933, 7129.245356231375, 1421.9732787577248, -2943.2553581303787, 0.002, -0.02, 0.974, 192.0, 0.0, 0.0, 0.0, 0.0, 0.0, 0.0, 0.0, 0.0, 0.0, 1.686054023193785E9, 0.0, 2023-06-06 14:20:23.193
72.0, 187500.0, -187500.02235174447, 187500.0, -12668.029984000921, 20447.956973070737, 7164.4270020040285, 1472.0188345931572, -2901.9716861214265, 0.002, -0.02, 0.974, 192.0, 0.0, 0.0, 0.0, 0.0, 0.0, 0.0, 0.0, 0.0, 0.0, 1.686054023197783E9, 0.0, 2023-06-06 14:20:23.197
73.0, 187500.0, -187500.02235174447, 187500.0, -12691.499315678993, 20479.182360074803, 7162.281234536319, 1478.702006185294, -2889.5664679487313, 0.002, -0.02, 0.974, 192.0, 0.0, 0.0, 0.0, 0.0, 0.0, 0.0, 0.0, 0.0, 0.0, 1.686054023202822E9, 0.0, 2023-06-06 14:20:23.202
74.0, 187500.0, -187500.02235174447, 187500.0, -12706.877315864243, 20462.306793011045, 7099.226963427897, 1388.7809382415937, -2861.9397118019715, 0.002, -0.018000000000000002, 0.974, 192.0, 0.0, 16.0, 255.0, 112.0, 30.0, 112.0, 0.0, 0.0, 0.0, 1.68605402320689E9, 0.0, 2023-06-06 14:20:23.206
75.0, 187500.0, -187500.02235174447, 187500.0, -12684.212646986563, 20512.06177616856, 7066.325195589686, 1323.1338647763569, -2675.6155700225318, 0.002, -0.018000000000000002, 0.974, 192.0, 0.0, 0.0, 0.0, 0.0, 0.0, 0.0, 0.0, 0.0, 0.0, 1.686054023209913E9, 0.0, 2023-06-06 14:20:23.209
76.0, 187500.0, -187500.02235174447, 187500.0, -12672.74620208099, 20569.17048325187, 7131.525234165816, 1414.2395751761885, -2700.24719241228, 0.002, -0.018000000000000002, 0.974, 192.0, 0.0, 0.0, 0.0, 0.0, 0.0, 0.0, 0.0, 0.0, 0.0, 1.686054023213885E9, 0.0, 2023-06-06 14:20:23.213
77.0, 187500.0, -187500.02235174447, 187500.0, -12686.783097598924, 20616.667940219395, 7175.424060276039, 1477.6291224514393, -2751.991480826316, 0.002, -0.018000000000000002, 0.974, 192.0, 0.0, 0.0, 0.0, 0.0, 0.0, 0.0, 0.0, 0.0, 0.0, 1.686054023217904E9, 0.0, 2023-06-06 14:20:23.217
78.0, 187500.0, -187500.02235174447, 187500.0, -12700.305902994383, 20637.36565558501, 7173.099478852687, 1481.7641951756711, -2797.924315681972, 0.002, -0.018000000000000002, 0.974, 192.0, 0.0, 0.0, 0.0, 0.0, 0.0, 0.0, 0.0, 0.0, 0.0, 1.686054023221888E9, 0.0, 2023-06-06 14:20:23.221
79.0, 187500.0, -187500.02235174447, 187500.0, -12694.382690713728, 20565.88477681694, 7103.138518707576, 1384.0647201615238, -2880.4916596998764, 0.002, -0.018000000000000002, 0.974, 192.0, 0.0, 0.0, 0.0, 0.0, 0.0, 0.0, 0.0, 0.0, 0.0, 1.68605402322591E9, 0.0, 2023-06-06 14:20:23.225
80.0, 187500.0, -187500.02235174447, 187500.0, -12682.759783596968, 20478.645918207876, 7061.787791465258, 1312.1144547598906, -2928.860834701161, 0.002, -0.018000000000000002, 0.974, 192.0, 0.0, 0.0, 0.0, 0.0, 0.0, 0.0, 0.0, 0.0, 0.0, 1.686054023230889E9, 0.0, 2023-06-06 14:20:23.230
81.0, 187500.0, -187500.02235174447, 187500.0, -12675.540170137903, 20501.53410453011, 7125.26674571833, 1395.5535168115518, -2912.253488570868, 0.002, -0.018000000000000002, 0.974, 192.0, 0.0, 0.0, 0.0, 0.0, 0.0, 0.0, 0.0, 0.0, 0.0, 1.686054023233903E9, 0.0, 2023-06-06 14:20:23.233
82.0, 187500.0, -187500.02235174447, 187500.0, -12670.265158446451, 20437.585763643478, 7159.576673457226, 1451.2093605052664, -3112.6145258682404, 0.002, -0.018000000000000002, 0.974, 192.0, 0.0, 0.0, 0.0, 0.0, 0.0, 0.0, 0.0, 0.0, 0.0, 1.686054023237925E9, 0.0, 2023-06-06 14:20:23.237
83.0, 187500.0, -187500.02235174447, 187500.0, -12691.65577789018, 20445.900612580852, 7161.744792669391, 1476.802107906593, -3071.733185259484, 0.002, -0.018000000000000002, 0.974, 192.0, 0.0, 0.0, 0.0, 0.0, 0.0, 0.0, 0.0, 0.0, 0.0, 1.6860540232419E9, 0.0, 2023-06-06 14:20:23.241
84.0, 187500.0, -187500.02235174447, 187500.0, -12693.242751746506, 20419.23498144567, 7102.758539051836, 1394.838260988982, -3024.4145422475985, 0.002, -0.018000000000000002, 0.974, 192.0, 0.0, 0.0, 255.0, 112.0, 30.0, 128.0, 0.0, 0.0, 0.0, 1.686054023246027E9, 0.0, 2023-06-06 14:20:23.246
85.0, 187500.0, -187500.02235174447, 187500.0, -12657.479960618015, 20364.093227874426, 7070.192047380454, 1330.129960790868, -3008.053065306314, 0.002, -0.018000000000000002, 0.974, 192.0, 0.0, 0.0, 0.0, 0.0, 0.0, 0.0, 0.0, 0.0, 0.0, 1.686054023250041E9, 0.0, 2023-06-06 14:20:23.250
86.0, 187500.0, -187500.02235174447, 187500.0, -12655.244786172485, 20416.686882577764, 7131.391123699084, 1415.446569376775, -2922.535291020309, 0.002, -0.018000000000000002, 0.974, 192.0, 0.0, 0.0, 0.0, 0.0, 0.0, 0.0, 0.0, 0.0, 0.0, 1.686054023254052E9, 0.0, 2023-06-06 14:20:23.254
87.0, 187500.0, -187500.02235174447, 187500.0, -12659.066934474342, 20472.52154022712, 7167.958577627966, 1474.4998782276964, -2882.7715376343176, 0.002, -0.018000000000000002, 0.974, 192.0, 0.0, 0.0, 0.0, 0.0, 0.0, 0.0, 0.0, 0.0, 0.0, 1.68605402325903E9, 0.0, 2023-06-06 14:20:23.259
88.0, 187500.0, -187500.02235174447, 187500.0, -12663.64904208768, 20509.58073253402, 7168.249150305885, 1478.8137649075707, -2846.405249405533, 0.002, -0.018000000000000002, 0.974, 192.0, 0.0, 0.0, 0.0, 0.0, 0.0, 0.0, 0.0, 0.0, 0.0, 1.686054023262027E9, 0.0, 2023-06-06 14:20:23.262
89.0, 187500.0, -187500.02235174447, 187500.0, -12686.8948563212, 20561.392076181422, 7098.802280283247, 1387.2163161297221, -2676.19671537837, 0.002, -0.018000000000000002, 0.974, 192.0, 0.0, 0.0, 0.0, 0.0, 0.0, 0.0, 0.0, 0.0, 0.0, 1.686054023265032E9, 0.0, 2023-06-06 14:20:23.265
90.0, 187500.0, -187500.02235174447, 187500.0, -12678.55765563937, 20531.77601477814, 7062.927730432479, 1323.0891612874464, -2740.3015184761907, 0.002, -0.018000000000000002, 0.974, 192.0, 0.0, 0.0, 0.0, 0.0, 0.0, 0.0, 0.0, 0.0, 0.0, 1.686054023270162E9, 0.0, 2023-06-06 14:20:23.270
91.0, 187500.0, -187500.02235174447, 187500.0, -12673.908492792665, 20567.427047184356, 7131.45817893245, 1408.3610663844427, -2775.2596468042907, 0.002, -0.018000000000000002, 0.974, 192.0, 0.0, 0.0, 0.0, 0.0, 0.0, 0.0, 0.0, 0.0, 0.0, 1.686054023274153E9, 0.0, 2023-06-06 14:20:23.274
92.0, 187500.0, -187500.02235174447, 187500.0, -12664.587815354804, 20606.60965521451, 7175.938150398511, 1463.9498548447914, -2790.5705917561763, 0.002, -0.018000000000000002, 0.974, 192.0, 0.0, 0.0, 0.0, 0.0, 0.0, 0.0, 0.0, 0.0, 0.0, 1.686054023278138E9, 0.0, 2023-06-06 14:20:23.278
93.0, 187500.0, -187500.02235174447, 187500.0, -12675.763687582457, 20623.507574022722, 7179.84970567819, 1473.7846224051266, -2807.9155454534944, 0.002, -0.018000000000000002, 0.974, 192.0, 0.0, 0.0, 0.0, 0.0, 0.0, 0.0, 0.0, 0.0, 0.0, 1.686054023282167E9, 0.0, 2023-06-06 14:20:23.282
94.0, 187500.0, -187500.02235174447, 187500.0, -12677.46242016106, 20561.772055837162, 7111.006332755845, 1381.9636561827251, -2875.66368289753, 0.002, -0.016, 0.974, 192.0, 0.0, 16.0, 255.0, 128.0, 30.0, 112.0, 0.0, 0.0, 0.0, 1.68605402328616E9, 0.0, 2023-06-06 14:20:23.286
95.0, 187500.0, -187500.02235174447, 187500.0, -12646.59466106828, 20462.262089522137, 7066.191085122953, 1313.1873384937453, -2952.6430908016077, 0.002, -0.016, 0.974, 192.0, 0.0, 0.0, 0.0, 0.0, 0.0, 0.0, 0.0, 0.0, 0.0, 1.686054023290186E9, 0.0, 2023-06-06 14:20:23.290
96.0, 187500.0, -187500.02235174447, 187500.0, -12644.65005930067, 20404.929864994272, 7133.6710016335255, 1407.444644861775, -3114.9167555471367, 0.002, -0.016, 0.974, 192.0, 0.0, 0.0, 0.0, 0.0, 0.0, 0.0, 0.0, 0.0, 0.0, 1.686054023293135E9, 0.0, 2023-06-06 14:20:23.293
97.0, 187500.0, -187500.02235174447, 187500.0, -12651.579100081814, 20432.936600796773, 7177.65923472157, 1475.6174654504616, -3052.0860018832686, 0.002, -0.016, 0.974, 192.0, 0.0, 0.0, 0.0, 0.0, 0.0, 0.0, 0.0, 0.0, 0.0, 1.686054023297144E9, 0.0, 2023-06-06 14:20:23.297
98.0, 187500.0, -187500.02235174447, 187500.0, -12668.320556678838, 20472.253319293657, 7177.882752166123, 1481.965360875769, -2961.8967130061046, 0.002, -0.016, 0.974, 192.0, 0.0, 0.0, 0.0, 0.0, 0.0, 0.0, 0.0, 0.0, 0.0, 1.686054023302174E9, 0.0, 2023-06-06 14:20:23.302
99.0, 187500.0, -187500.02235174447, 187500.0, -12674.847266059789, 20411.90360926433, 7105.463100130928, 1380.8907724488704, -2982.9967597719146, 0.002, -0.016, 0.974, 192.0, 0.0, 0.0, 0.0, 0.0, 0.0, 0.0, 0.0, 0.0, 0.0, 1.686054023306172E9, 0.0, 2023-06-06 14:20:23.306
100.0, 187500.0, -187500.02235174447, 187500.0, -12664.297242676885, 20347.284716044036, 7060.6478524980375, 1313.0532280270133, -2991.02103603137, 0.002, -0.016, 0.974, 192.0, 0.0, 0.0, 0.0, 0.0, 0.0, 0.0, 0.0, 0.0, 0.0, 1.686054023310151E9, 0.0, 2023-06-06 14:20:23.310
101.0, 187500.0, -187500.02235174447, 187500.0, -12659.961004252555, 20406.695652806244, 7121.466949160928, 1396.51464182313, -2914.868642672139, 0.002, -0.016, 0.974, 192.0, 0.0, 0.0, 0.0, 0.0, 0.0, 0.0, 0.0, 0.0, 0.0, 1.686054023314137E9, 0.0, 2023-06-06 14:20:23.314
102.0, 187500.0, -187500.02235174447, 187500.0, -12663.202007198573, 20478.86943565243, 7164.516408981849, 1450.248235493688, -2844.795923804751, 0.002, -0.016, 0.974, 192.0, 0.0, 0.0, 0.0, 0.0, 0.0, 0.0, 0.0, 0.0, 0.0, 1.686054023317166E9, 0.0, 2023-06-06 14:20:23.317
103.0, 187500.0, -187500.02235174447, 187500.0, -12679.407021928671, 20598.98771035525, 7163.42117350354, 1447.4095639478642, -2623.42424671939, 0.002, -0.016, 0.974, 192.0, 0.0, 0.0, 0.0, 0.0, 0.0, 0.0, 0.0, 0.0, 0.0, 1.686054023321283E9, 0.0, 2023-06-06 14:20:23.321
104.0, 187500.0, -187500.02235174447, 187500.0, -12684.659681875668, 20561.012096525683, 7095.985960481878, 1348.4583912442197, -2712.898279773984, 0.002, -0.016, 0.974, 192.0, 0.0, 0.0, 0.0, 0.0, 0.0, 0.0, 0.0, 0.0, 0.0, 1.686054023325291E9, 0.0, 2023-06-06 14:20:23.325
105.0, 187500.0, -187500.02235174447, 187500.0, -12666.778286311423, 20477.640089707387, 7057.652718741027, 1286.7675765475724, -2834.1341416995697, 0.004, -0.014, 0.974, 192.0, 0.0, 32.0, 255.0, 144.0, 30.0, 112.0, 0.0, 0.0, 0.0, 1.686054023330264E9, 0.0, 2023-06-06 14:20:23.330
106.0, 187500.0, -187500.02235174447, 187500.0, -12670.198103213084, 20523.215296651757, 7119.0306090153, 1376.50983053563, -2816.096283924137, 0.004, -0.014, 0.974, 192.0, 0.0, 0.0, 0.0, 0.0, 0.0, 0.0, 0.0, 0.0, 0.0, 1.686054023334278E9, 0.0, 2023-06-06 14:20:23.334
107.0, 187500.0, -187500.02235174447, 187500.0, -12669.214626457051, 20568.72344836276, 7165.902217138078, 1434.4008486748755, -2816.9456502134385, 0.004, -0.014, 0.974, 192.0, 0.0, 0.0, 0.0, 0.0, 0.0, 0.0, 0.0, 0.0, 0.0, 1.686054023338289E9, 0.0, 2023-06-06 14:20:23.338
108.0, 187500.0, -187500.02235174447, 187500.0, -12681.8433620743, 20601.289940034145, 7175.8934469096, 1462.7205088997496, -2821.5501095712316, 0.004, -0.014, 0.974, 192.0, 0.0, 0.0, 0.0, 0.0, 0.0, 0.0, 0.0, 0.0, 0.0, 1.686054023341265E9, 0.0, 2023-06-06 14:20:23.341
109.0, 187500.0, -187500.02235174447, 187500.0, -12687.006615043476, 20527.417424609357, 7104.971361752911, 1368.9102374208258, -2918.7131427184518, 0.004, -0.014, 0.974, 192.0, 0.0, 0.0, 0.0, 0.0, 0.0, 0.0, 0.0, 0.0, 0.0, 1.686054023345279E9, 0.0, 2023-06-06 14:20:23.345
110.0, 187500.0, -187500.02235174447, 187500.0, -12661.771495553434, 20352.02328586856, 7064.4700007998945, 1301.0503412545136, -3177.903971422192, 0.004, -0.014, 0.974, 192.0, 0.0, 0.0, 0.0, 0.0, 0.0, 0.0, 0.0, 0.0, 0.0, 1.686054023349267E9, 0.0, 2023-06-06 14:20:23.349
111.0, 187500.0, -187500.02235174447, 187500.0, -12670.019289257443, 20367.445989542724, 7119.924678793512, 1386.7916329850714, -3094.196688437067, 0.004, -0.014, 0.974, 192.0, 0.0, 0.0, 0.0, 0.0, 0.0, 0.0, 0.0, 0.0, 0.0, 1.686054023353278E9, 0.0, 2023-06-06 14:20:23.353
112.0, 187500.0, -187500.02235174447, 187500.0, -12698.18248727113, 20421.98424601367, 7149.853664619168, 1428.7905608165934, -2987.5788673852526, 0.004, -0.014, 0.974, 192.0, 0.0, 0.0, 0.0, 0.0, 0.0, 0.0, 0.0, 0.0, 0.0, 1.686054023357263E9, 0.0, 2023-06-06 14:20:23.357
113.0, 187500.0, -187500.02235174447, 187500.0, -12705.245638519007, 20473.169740816324, 7161.096592080187, 1447.3425087144983, -2934.761695237362, 0.004, -0.014, 0.974, 192.0, 0.0, 0.0, 0.0, 0.0, 0.0, 0.0, 0.0, 0.0, 0.0, 1.686054023362398E9, 0.0, 2023-06-06 14:20:23.362
114.0, 187500.0, -187500.02235174447, 187500.0, -12695.723795381045, 20433.920077552804, 7097.461175615928, 1367.1220978644012, -2955.7052797919846, 0.004, -0.014, 0.974, 192.0, 0.0, 0.0, 0.0, 0.0, 0.0, 0.0, 0.0, 0.0, 0.0, 1.686054023366426E9, 0.0, 2023-06-06 14:20:23.366
115.0, 187500.0, -187500.02235174447, 187500.0, -12671.047469502386, 20371.335193077946, 7062.167771120999, 1302.9502395332147, -2966.903503764094, 0.004, -0.014, 0.974, 192.0, 0.0, 0.0, 255.0, 160.0, 30.0, 128.0, 0.0, 0.0, 0.0, 1.686054023369426E9, 0.0, 2023-06-06 14:20:23.369
116.0, 187500.0, -187500.02235174447, 187500.0, -12650.21564367004, 20442.369036956912, 7131.569937654726, 1390.5690777980183, -2860.6209588791085, 0.004, -0.014, 0.974, 192.0, 0.0, 0.0, 0.0, 0.0, 0.0, 0.0, 0.0, 0.0, 0.0, 1.686054023373391E9, 0.0, 2023-06-06 14:20:23.373
117.0, 187500.0, -187500.02235174447, 187500.0, -12647.958117480055, 20607.190800570348, 7180.699071967491, 1451.030546549624, -2605.431092432868, 0.004, -0.014, 0.974, 192.0, 0.0, 0.0, 0.0, 0.0, 0.0, 0.0, 0.0, 0.0, 0.0, 1.686054023377414E9, 0.0, 2023-06-06 14:20:23.377
118.0, 187500.0, -187500.02235174447, 187500.0, -12661.525626364426, 20671.09443796807, 7189.751528471891, 1468.7778316471376, -2625.7935316316525, 0.004, -0.014, 0.974, 192.0, 0.0, 0.0, 0.0, 0.0, 0.0, 0.0, 0.0, 0.0, 0.0, 1.686054023381396E9, 0.0, 2023-06-06 14:20:23.381
119.0, 187500.0, -187500.02235174447, 187500.0, -12666.867693289245, 20582.849750858517, 7115.83430955819, 1368.3737955538984, -2783.6191992305758, 0.004, -0.014, 0.974, 192.0, 0.0, 0.0, 0.0, 0.0, 0.0, 0.0, 0.0, 0.0, 0.0, 1.686054023385471E9, 0.0, 2023-06-06 14:20:23.385
120.0, 187500.0, -187500.02235174447, 187500.0, -12648.047524457876, 20492.325185814523, 7074.438878826962, 1292.1096434723906, -2861.5597321462315, 0.004, -0.014, 0.974, 192.0, 0.0, 0.0, 0.0, 0.0, 0.0, 0.0, 0.0, 0.0, 0.0, 1.686054023390402E9, 0.0, 2023-06-06 14:20:23.390
121.0, 187500.0, -187500.02235174447, 187500.0, -12643.621879055725, 20538.72740730374, 7147.059696562254, 1389.8985254643592, -2818.4879205808547, 0.004, -0.014, 0.974, 192.0, 0.0, 0.0, 0.0, 0.0, 0.0, 0.0, 0.0, 0.0, 0.0, 1.686054023394388E9, 0.0, 2023-06-06 14:20:23.394
122.0, 187500.0, -187500.02235174447, 187500.0, -12653.07666696032, 20587.811838127596, 7189.058624393777, 1453.0869070395122, -2805.099225652126, 0.004, -0.014, 0.974, 192.0, 0.0, 0.0, 0.0, 0.0, 0.0, 0.0, 0.0, 0.0, 0.0, 1.686054023397393E9, 0.0, 2023-06-06 14:20:23.397
123.0, 187500.0, -187500.02235174447, 187500.0, -12665.861864788756, 20595.4114312424, 7190.80206046129, 1465.737994401216, -2850.026232007293, 0.004, -0.014, 0.974, 192.0, 0.0, 0.0, 0.0, 0.0, 0.0, 0.0, 0.0, 0.0, 0.0, 1.68605402340154E9, 0.0, 2023-06-06 14:20:23.401
124.0, 187500.0, -187500.02235174447, 187500.0, -12665.660699088658, 20436.021141531604, 7124.350324195662, 1377.001568913647, -3136.5085406909634, 0.004, -0.014, 0.974, 192.0, 0.0, 0.0, 0.0, 0.0, 0.0, 0.0, 0.0, 0.0, 0.0, 1.686054023405558E9, 0.0, 2023-06-06 14:20:23.405
125.0, 187500.0, -187500.02235174447, 187500.0, -12646.304088390361, 20342.59084970842, 7080.987939952367, 1312.3379722044435, -3140.844779115293, -0.002, -0.014, 0.978, 192.0, 255.0, 240.0, 255.0, 144.0, 30.0, 144.0, 0.0, 0.0, 0.0, 1.686054023409519E9, 0.0, 2023-06-06 14:20:23.409
126.0, 187500.0, -187500.02235174447, 187500.0, -12654.037791971898, 20413.80350754303, 7141.516463937339, 1396.358179611943, -2985.3213411952665, -0.002, -0.014, 0.978, 192.0, 0.0, 0.0, 0.0, 0.0, 0.0, 0.0, 0.0, 0.0, 0.0, 1.686054023413535E9, 0.0, 2023-06-06 14:20:23.413
127.0, 187500.0, -187500.02235174447, 187500.0, -12670.801600313378, 20469.749923914664, 7182.5095632683715, 1452.8410378505037, -2922.3564770646667, -0.002, -0.014, 0.978, 192.0, 0.0, 0.0, 0.0, 0.0, 0.0, 0.0, 0.0, 0.0, 0.0, 1.686054023417531E9, 0.0, 2023-06-06 14:20:23.417
128.0, 187500.0, -187500.02235174447, 187500.0, -12695.030891302931, 20499.656557995862, 7179.000339388888, 1468.9119421138696, -2901.4575959989543, -0.002, -0.014, 0.978, 192.0, 0.0, 0.0, 0.0, 0.0, 0.0, 0.0, 0.0, 0.0, 0.0, 1.686054023422555E9, 0.0, 2023-06-06 14:20:23.422
129.0, 187500.0, -187500.02235174447, 187500.0, -12678.289434705906, 20440.066807278017, 7103.585553596682, 1367.3679670534095, -2952.911311735071, -0.002, -0.014, 0.978, 192.0, 0.0, 0.0, 0.0, 0.0, 0.0, 0.0, 0.0, 0.0, 0.0, 1.686054023425544E9, 0.0, 2023-06-06 14:20:23.425
130.0, 187500.0, -187500.02235174447, 187500.0, -12649.947422736577, 20374.062105901492, 7057.853884441124, 1288.4663091261757, -2952.1960559125014, -0.002, -0.014, 0.978, 192.0, 0.0, 0.0, 0.0, 0.0, 0.0, 0.0, 0.0, 0.0, 0.0, 1.686054023429525E9, 0.0, 2023-06-06 14:20:23.429
131.0, 187500.0, -187500.02235174447, 187500.0, -12657.859940273756, 20523.952904218782, 7126.004353285355, 1373.2017723562446, -2667.010148407239, -0.002, -0.014, 0.978, 192.0, 0.0, 0.0, 0.0, 0.0, 0.0, 0.0, 0.0, 0.0, 0.0, 1.68605402343351E9, 0.0, 2023-06-06 14:20:23.433
132.0, 187500.0, -187500.02235174447, 187500.0, -12654.8871582612, 20611.370576783487, 7172.116002096654, 1429.706982339261, -2647.877055153496, -0.002, -0.014, 0.978, 192.0, 0.0, 0.0, 0.0, 0.0, 0.0, 0.0, 0.0, 0.0, 0.0, 1.686054023437547E9, 0.0, 2023-06-06 14:20:23.437
133.0, 187500.0, -187500.02235174447, 187500.0, -12667.314728178351, 20627.530888024678, 7181.8613626791675, 1452.1928372613, -2738.1110475195705, -0.002, -0.014, 0.978, 192.0, 0.0, 0.0, 0.0, 0.0, 0.0, 0.0, 0.0, 0.0, 0.0, 1.686054023441683E9, 0.0, 2023-06-06 14:20:23.441
134.0, 187500.0, -187500.02235174447, 187500.0, -12683.78796384191, 20569.394000696422, 7116.974248525411, 1372.575923511496, -2833.1953684324467, -0.002, -0.014, 0.978, 192.0, 0.0, 0.0, 0.0, 0.0, 0.0, 0.0, 0.0, 0.0, 0.0, 1.686054023445671E9, 0.0, 2023-06-06 14:20:23.445
135.0, 187500.0, -187500.02235174447, 187500.0, -12684.547923153392, 20482.713935698743, 7068.605073524127, 1292.1766987057565, -2900.2953052872786, 0.004, -0.008, 0.98, 192.0, 0.0, 32.0, 255.0, 192.0, 30.0, 160.0, 0.0, 0.0, 0.0, 1.686054023450652E9, 0.0, 2023-06-06 14:20:23.450
136.0, 187500.0, -187500.02235174447, 187500.0, -12681.664548118657, 20519.415500094354, 7123.568013139727, 1367.9491124092476, -2858.475191411399, 0.004, -0.008, 0.98, 192.0, 0.0, 0.0, 0.0, 0.0, 0.0, 0.0, 0.0, 0.0, 0.0, 1.686054023453679E9, 0.0, 2023-06-06 14:20:23.453
137.0, 187500.0, -187500.02235174447, 187500.0, -12677.21655097205, 20563.180215737848, 7164.762278170858, 1430.1316654839118, -2866.834743837684, 0.004, -0.008, 0.98, 192.0, 0.0, 0.0, 0.0, 0.0, 0.0, 0.0, 0.0, 0.0, 0.0, 1.686054023457658E9, 0.0, 2023-06-06 14:20:23.457
138.0, 187500.0, -187500.02235174447, 187500.0, -12696.394347714704, 20489.307700313057, 7167.489190994405, 1442.2016074897776, -3092.9002872586593, 0.004, -0.008, 0.98, 192.0, 0.0, 0.0, 0.0, 0.0, 0.0, 0.0, 0.0, 0.0, 0.0, 1.686054023461645E9, 0.0, 2023-06-06 14:20:23.461
139.0, 187500.0, -187500.02235174447, 187500.0, -12708.844269376312, 20393.686937533254, 7096.3435883931625, 1357.1085163484236, -3143.6387471722064, 0.004, -0.008, 0.98, 192.0, 0.0, 0.0, 0.0, 0.0, 0.0, 0.0, 0.0, 0.0, 0.0, 1.686054023465666E9, 0.0, 2023-06-06 14:20:23.465
140.0, 187500.0, -187500.02235174447, 187500.0, -12691.164039512163, 20341.562669463478, 7054.188198350454, 1291.2826289275442, -3078.1928394070674, 0.004, -0.008, 0.98, 192.0, 0.0, 0.0, 0.0, 0.0, 0.0, 0.0, 0.0, 0.0, 0.0, 1.686054023469658E9, 0.0, 2023-06-06 14:20:23.469
141.0, 187500.0, -187500.02235174447, 187500.0, -12687.163077254663, 20395.89976023433, 7115.78960606928, 1370.1842868547783, -2975.5536288682974, 0.004, -0.008, 0.98, 192.0, 0.0, 0.0, 0.0, 0.0, 0.0, 0.0, 0.0, 0.0, 0.0, 1.686054023473655E9, 0.0, 2023-06-06 14:20:23.473
142.0, 187500.0, -187500.02235174447, 187500.0, -12682.200989985586, 20463.53613895609, 7164.359946770662, 1439.0947150104898, -2912.186433337502, 0.004, -0.008, 0.98, 192.0, 0.0, 0.0, 0.0, 0.0, 0.0, 0.0, 0.0, 0.0, 0.0, 1.686054023477641E9, 0.0, 2023-06-06 14:20:23.477
143.0, 187500.0, -187500.02235174447, 187500.0, -12693.913304080166, 20498.941302173294, 7177.815696932757, 1460.0159478206574, -2886.124299302614, 0.004, -0.008, 0.98, 192.0, 0.0, 0.0, 0.0, 0.0, 0.0, 0.0, 0.0, 0.0, 0.0, 1.686054023480798E9, 0.0, 2023-06-06 14:20:23.480
144.0, 187500.0, -187500.02235174447, 187500.0, -12718.589629958824, 20451.3767899724, 7110.067559488722, 1367.1220978644012, -2910.4653490144433, 0.004, -0.008, 0.98, 192.0, 0.0, 0.0, 0.0, 0.0, 0.0, 0.0, 0.0, 0.0, 0.0, 1.686054023484769E9, 0.0, 2023-06-06 14:20:23.484
145.0, 187500.0, -187500.02235174447, 187500.0, -12700.395309972206, 20488.212464834745, 7071.466096814406, 1296.2670679410778, -2715.6475443419868, 0.002, -0.012, 0.978, 192.0, 0.0, 16.0, 255.0, 160.0, 30.0, 144.0, 0.0, 0.0, 0.0, 1.686054023489793E9, 0.0, 2023-06-06 14:20:23.489
146.0, 187500.0, -187500.02235174447, 187500.0, -12667.962928767554, 20578.535864178644, 7134.430960945006, 1372.9559031672363, -2658.0247471362054, 0.002, -0.012, 0.978, 192.0, 0.0, 0.0, 0.0, 0.0, 0.0, 0.0, 0.0, 0.0, 0.0, 1.686054023493763E9, 0.0, 2023-06-06 14:20:23.493
147.0, 187500.0, -187500.02235174447, 187500.0, -12665.459533388559, 20614.41041402941, 7179.916760911556, 1433.350316685476, -2729.3938671820006, 0.002, -0.012, 0.978, 192.0, 0.0, 0.0, 0.0, 0.0, 0.0, 0.0, 0.0, 0.0, 0.0, 1.686054023497775E9, 0.0, 2023-06-06 14:20:23.497
148.0, 187500.0, -187500.02235174447, 187500.0, -12680.591664384803, 20627.93321942487, 7187.51635402636, 1447.253101736677, -2773.873838648062, 0.002, -0.012, 0.978, 192.0, 0.0, 0.0, 0.0, 0.0, 0.0, 0.0, 0.0, 0.0, 0.0, 1.686054023501778E9, 0.0, 2023-06-06 14:20:23.501
149.0, 187500.0, -187500.02235174447, 187500.0, -12687.27483597694, 20574.3560879655, 7123.1656817395315, 1363.2105425847224, -2848.6180721066085, 0.002, -0.012, 0.978, 192.0, 0.0, 0.0, 0.0, 0.0, 0.0, 0.0, 0.0, 0.0, 0.0, 1.686054023504794E9, 0.0, 2023-06-06 14:20:23.504
150.0, 187500.0, -187500.02235174447, 187500.0, -12677.373013183238, 20489.061831124047, 7070.929654947478, 1280.7996607780053, -2907.4478635129767, 0.002, -0.012, 0.978, 192.0, 0.0, 0.0, 0.0, 0.0, 0.0, 0.0, 0.0, 0.0, 0.0, 1.68605402350882E9, 0.0, 2023-06-06 14:20:23.508
151.0, 187500.0, -187500.02235174447, 187500.0, -12676.143667238197, 20503.3892993199, 7117.689504347981, 1348.4360394997645, -2893.366264506133, 0.002, -0.012, 0.978, 192.0, 0.0, 0.0, 0.0, 0.0, 0.0, 0.0, 0.0, 0.0, 0.0, 1.686054023512786E9, 0.0, 2023-06-06 14:20:23.512
152.0, 187500.0, -187500.02235174447, 187500.0, -12681.50808590747, 20469.794627403575, 7163.979967114922, 1425.2142817037443, -3080.0927376857685, 0.002, -0.012, 0.978, 192.0, 0.0, 0.0, 0.0, 0.0, 0.0, 0.0, 0.0, 0.0, 0.0, 1.68605402351691E9, 0.0, 2023-06-06 14:20:23.516
153.0, 187500.0, -187500.02235174447, 187500.0, -12686.805449343377, 20468.922909369816, 7180.654368478581, 1458.2054565197775, -3065.005310178436, 0.002, -0.012, 0.978, 192.0, 0.0, 0.0, 0.0, 0.0, 0.0, 0.0, 0.0, 0.0, 0.0, 1.686054023521906E9, 0.0, 2023-06-06 14:20:23.521
154.0, 187500.0, -187500.02235174447, 187500.0, -12685.531399909425, 20426.14167048236, 7118.494167148372, 1368.7984786985492, -3018.178405544568, 0.002, -0.012, 0.978, 192.0, 0.0, 0.0, 0.0, 0.0, 0.0, 0.0, 0.0, 0.0, 0.0, 1.686054023525883E9, 0.0, 2023-06-06 14:20:23.525
155.0, 187500.0, -187500.02235174447, 187500.0, -12670.22045495754, 20364.160283107794, 7072.561332292716, 1299.329256931455, -2998.173594257068, 0.004, -0.012, 0.976, 192.0, 0.0, 32.0, 255.0, 160.0, 30.0, 128.0, 0.0, 0.0, 0.0, 1.686054023529929E9, 0.0, 2023-06-06 14:20:23.529
156.0, 187500.0, -187500.02235174447, 187500.0, -12676.814219571856, 20414.652873832332, 7127.636030630592, 1373.872324689904, -2918.2661078293454, 0.004, -0.012, 0.976, 192.0, 0.0, 0.0, 0.0, 0.0, 0.0, 0.0, 0.0, 0.0, 0.0, 1.686054023532909E9, 0.0, 2023-06-06 14:20:23.532
157.0, 187500.0, -187500.02235174447, 187500.0, -12683.810315586366, 20475.091990839483, 7173.32299629724, 1430.7575143286604, -2883.7773661348065, 0.004, -0.012, 0.976, 192.0, 0.0, 0.0, 0.0, 0.0, 0.0, 0.0, 0.0, 0.0, 0.0, 1.686054023536896E9, 0.0, 2023-06-06 14:20:23.536
158.0, 187500.0, -187500.02235174447, 187500.0, -12694.293283735906, 20513.469936069243, 7183.537743513316, 1450.5164564271518, -2846.829932550184, 0.004, -0.012, 0.976, 192.0, 0.0, 0.0, 0.0, 0.0, 0.0, 0.0, 0.0, 0.0, 0.0, 1.686054023540888E9, 0.0, 2023-06-06 14:20:23.540
159.0, 187500.0, -187500.02235174447, 187500.0, -12716.153289813195, 20565.549500650108, 7116.214289213931, 1363.6352257293734, -2681.6952445143756, 0.004, -0.012, 0.976, 192.0, 0.0, 0.0, 0.0, 0.0, 0.0, 0.0, 0.0, 0.0, 0.0, 1.686054023544939E9, 0.0, 2023-06-06 14:20:23.544
160.0, 187500.0, -187500.02235174447, 187500.0, -12694.405042458182, 20533.11711944546, 7070.97435843639, 1283.168945690268, -2729.2374049708137, 0.004, -0.012, 0.976, 192.0, 0.0, 0.0, 0.0, 0.0, 0.0, 0.0, 0.0, 0.0, 0.0, 1.686054023549905E9, 0.0, 2023-06-06 14:20:23.549
161.0, 187500.0, -187500.02235174447, 187500.0, -12695.790850614412, 20559.201605224804, 7127.278402719307, 1361.7353274506722, -2776.220771815869, 0.004, -0.012, 0.976, 192.0, 0.0, 0.0, 0.0, 0.0, 0.0, 0.0, 0.0, 0.0, 0.0, 1.686054023553906E9, 0.0, 2023-06-06 14:20:23.553
162.0, 187500.0, -187500.02235174447, 187500.0, -12698.853039604788, 20615.259780318713, 7177.502772510383, 1432.5903573739956, -2792.8281179461624, 0.004, -0.012, 0.976, 192.0, 0.0, 0.0, 0.0, 0.0, 0.0, 0.0, 0.0, 0.0, 0.0, 1.686054023558062E9, 0.0, 2023-06-06 14:20:23.558
163.0, 187500.0, -187500.02235174447, 187500.0, -12694.025062802442, 20640.249030619747, 7195.562982030271, 1458.4289739643305, -2808.541394298243, 0.004, -0.012, 0.976, 192.0, 0.0, 0.0, 0.0, 0.0, 0.0, 0.0, 0.0, 0.0, 0.0, 1.686054023561031E9, 0.0, 2023-06-06 14:20:23.561
164.0, 187500.0, -187500.02235174447, 187500.0, -12705.647969919202, 20585.59901542652, 7125.311449207241, 1375.2581328461329, -2875.8648485976278, 0.004, -0.012, 0.976, 192.0, 0.0, 0.0, 0.0, 0.0, 0.0, 0.0, 0.0, 0.0, 0.0, 1.68605402356504E9, 0.0, 2023-06-06 14:20:23.565
165.0, 187500.0, -187500.02235174447, 187500.0, -12685.88902782071, 20499.63420625141, 7081.725547519392, 1300.2456784541225, -2948.2397971439123, 0.004, -0.014, 0.974, 192.0, 0.0, 32.0, 255.0, 144.0, 30.0, 112.0, 0.0, 0.0, 0.0, 1.686054023569047E9, 0.0, 2023-06-06 14:20:23.569
166.0, 187500.0, -187500.02235174447, 187500.0, -12674.489638148503, 20430.47790890669, 7131.234661487897, 1368.485554276175, -3115.9672875365363, 0.004, -0.014, 0.974, 192.0, 0.0, 0.0, 0.0, 0.0, 0.0, 0.0, 0.0, 0.0, 0.0, 1.686054023573024E9, 0.0, 2023-06-06 14:20:23.573
167.0, 187500.0, -187500.02235174447, 187500.0, -12667.56059736736, 20451.935583583785, 7175.222894575942, 1440.3017092110765, -3072.046109681858, 0.004, -0.014, 0.974, 192.0, 0.0, 0.0, 0.0, 0.0, 0.0, 0.0, 0.0, 0.0, 0.0, 1.686054023578045E9, 0.0, 2023-06-06 14:20:23.578
168.0, 187500.0, -187500.02235174447, 187500.0, -12676.993033527498, 20492.325185814523, 7186.219952847952, 1457.1996280192886, -2964.2212944294565, 0.004, -0.014, 0.974, 192.0, 0.0, 0.0, 0.0, 0.0, 0.0, 0.0, 0.0, 0.0, 0.0, 1.686054023582157E9, 0.0, 2023-06-06 14:20:23.582
169.0, 187500.0, -187500.02235174447, 187500.0, -12691.454612190082, 20447.62169690391, 7120.058789260243, 1371.0560048885352, -2972.245570688912, 0.004, -0.014, 0.974, 192.0, 0.0, 0.0, 0.0, 0.0, 0.0, 0.0, 0.0, 0.0, 0.0, 1.686054023585156E9, 0.0, 2023-06-06 14:20:23.585
170.0, 187500.0, -187500.02235174447, 187500.0, -12667.98528051201, 20383.919225206286, 7068.716832246403, 1301.2738586990665, -2986.662445862585, 0.004, -0.014, 0.974, 192.0, 0.0, 0.0, 0.0, 0.0, 0.0, 0.0, 0.0, 0.0, 0.0, 1.686054023589187E9, 0.0, 2023-06-06 14:20:23.589
171.0, 187500.0, -187500.02235174447, 187500.0, -12669.214626457051, 20431.640199618363, 7123.880937562101, 1383.3271125944989, -2917.662610729052, 0.004, -0.014, 0.974, 192.0, 0.0, 0.0, 0.0, 0.0, 0.0, 0.0, 0.0, 0.0, 0.0, 1.686054023593155E9, 0.0, 2023-06-06 14:20:23.593
172.0, 187500.0, -187500.02235174447, 187500.0, -12676.277777704929, 20511.81590697955, 7176.362833543162, 1461.7593838881712, -2843.3207086707007, 0.004, -0.014, 0.974, 192.0, 0.0, 0.0, 0.0, 0.0, 0.0, 0.0, 0.0, 0.0, 0.0, 1.686054023597162E9, 0.0, 2023-06-06 14:20:23.597
173.0, 187500.0, -187500.02235174447, 187500.0, -12701.311731494872, 20643.490033565766, 7184.007130146877, 1477.6738259403498, -2619.42328446189, 0.004, -0.014, 0.974, 192.0, 0.0, 0.0, 0.0, 0.0, 0.0, 0.0, 0.0, 0.0, 0.0, 1.686054023601165E9, 0.0, 2023-06-06 14:20:23.601
174.0, 187500.0, -187500.02235174447, 187500.0, -12686.827801087833, 20631.08481539307, 7116.683675847492, 1380.9578276822363, -2684.4668608268335, 0.004, -0.014, 0.974, 192.0, 0.0, 0.0, 0.0, 0.0, 0.0, 0.0, 0.0, 0.0, 0.0, 1.686054023606147E9, 0.0, 2023-06-06 14:20:23.606
175.0, 187500.0, -187500.02235174447, 187500.0, -12663.403172898672, 20541.901355016395, 7069.074460157688, 1305.6548006123069, -2817.929126969472, 0.004, -0.014, 0.974, 192.0, 0.0, 0.0, 255.0, 192.0, 30.0, 96.0, 0.0, 0.0, 0.0, 1.686054023610216E9, 0.0, 2023-06-06 14:20:23.610
176.0, 187500.0, -187500.02235174447, 187500.0, -12662.017364742442, 20556.02765751215, 7117.443635158973, 1366.6080077419292, -2816.476263579877, 0.004, -0.014, 0.974, 192.0, 0.0, 0.0, 0.0, 0.0, 0.0, 0.0, 0.0, 0.0, 0.0, 1.686054023613158E9, 0.0, 2023-06-06 14:20:23.613
177.0, 187500.0, -187500.02235174447, 187500.0, -12655.803579783867, 20608.822477915583, 7172.853609663679, 1440.6816888668168, -2800.248897105324, 0.004, -0.014, 0.974, 192.0, 0.0, 0.0, 0.0, 0.0, 0.0, 0.0, 0.0, 0.0, 0.0, 1.686054023617153E9, 0.0, 2023-06-06 14:20:23.617
178.0, 187500.0, -187500.02235174447, 187500.0, -12660.45274263057, 20639.869050964004, 7182.196638845997, 1467.123802557445, -2805.054522163215, 0.004, -0.014, 0.974, 192.0, 0.0, 0.0, 0.0, 0.0, 0.0, 0.0, 0.0, 0.0, 0.0, 1.686054023621149E9, 0.0, 2023-06-06 14:20:23.621
179.0, 187500.0, -187500.02235174447, 187500.0, -12675.718984093546, 20570.22101524127, 7109.173489710509, 1371.614798499918, -2901.2564302988567, 0.004, -0.014, 0.974, 192.0, 0.0, 0.0, 0.0, 0.0, 0.0, 0.0, 0.0, 0.0, 0.0, 1.686054023625146E9, 0.0, 2023-06-06 14:20:23.625
180.0, 187500.0, -187500.02235174447, 187500.0, -12648.271041902428, 20391.3623561099, 7064.671166499993, 1299.485719142642, -3161.4754392475415, 0.004, -0.014, 0.974, 192.0, 0.0, 0.0, 0.0, 0.0, 0.0, 0.0, 0.0, 0.0, 0.0, 1.686054023629147E9, 0.0, 2023-06-06 14:20:23.629
181.0, 187500.0, -187500.02235174447, 187500.0, -12651.668507059636, 20396.27973989007, 7128.910080064546, 1390.479670820197, -3091.045092468869, 0.004, -0.014, 0.974, 192.0, 0.0, 0.0, 0.0, 0.0, 0.0, 0.0, 0.0, 0.0, 0.0, 1.686054023633294E9, 0.0, 2023-06-06 14:20:23.633
182.0, 187500.0, -187500.02235174447, 187500.0, -12660.184521697107, 20475.1813978173, 7181.190810345508, 1460.3065204985762, -2959.952111238493, 0.004, -0.014, 0.974, 192.0, 0.0, 0.0, 0.0, 0.0, 0.0, 0.0, 0.0, 0.0, 0.0, 1.686054023638314E9, 0.0, 2023-06-06 14:20:23.638
